Time,Fp1,Fp2,F3,F4,T3,T4,Cz
0.0,5.17842651331102,3.786799933080883,-0.49796625829160635,4.243194194790193,5.345858155738286,-3.670545643633869,10.686551871902301
0.001,-6.379792443289995,8.153568034706595,1.5134564326449123,6.94816671038428,0.5646550594208981,17.74824354649283,3.318346112699089
0.002,9.217647709827279,8.607904471789508,2.224755457503327,15.585467935834583,5.671043280032998,16.711206942971888,-0.0808905618145137
0.003,9.143870628444454,13.86172294897016,-0.2775726567962442,11.985189569443742,2.3222773311426925,15.627771319386794,13.936296866323678
0.004,18.147741772155193,20.908473694112672,10.809352910971404,17.260031746829625,8.71062991952277,23.297654887945832,8.558350801179277
0.005,13.413391276665516,16.37392795476113,18.095777211241597,18.79708741369755,6.679942018577636,36.279023077015694,4.641321267959258
0.006,18.946217683282928,19.64396876035645,24.311625565171127,28.08622199696506,3.931093849612026,29.93150745846897,4.067175653670736
0.007,14.801606449122904,26.574043317065097,16.16266169584767,26.699971573841104,17.709026340522755,41.84386022919382,4.000647393088593
0.008,22.102012852673965,23.626156697255404,24.655021885833737,25.564643566332293,22.514796545005133,43.67525447656774,14.35348271791154
0.009,25.424979030131905,30.42675326481407,21.606638565641724,40.79059252801015,19.596414046376424,43.14234178534519,11.479650661801065
0.01,34.9717960974787,34.03722413898516,29.307523210823085,50.12475420265128,8.651234282256075,52.83947817279429,14.543004327252604
0.011,35.679796987303796,32.974764568401554,21.666390696453103,43.28707323139151,18.27226460648325,42.719781731775385,17.4495607636608
0.012,32.59936168514058,43.26429789138226,27.424688560972545,45.467428693685214,20.440309143534495,54.49929814793862,21.11880969337321
0.013,41.06191189991789,47.67185274555536,37.05669699990157,49.52014175679922,23.971686963856683,53.1261536748727,16.5413023987407
0.014,41.67003759073043,43.23151442466376,27.36428906502832,53.790252745716145,26.144557429696434,53.36344800302014,30.576351288692983
0.015,46.60655298410385,39.48059271809992,38.16535319931443,54.85752206291798,24.06706588187529,49.35763624786012,19.663393964783435
0.016,32.47934731962914,45.001115275364974,40.29664684397262,52.57848815373528,25.15326665858394,45.4792704212447,35.04974019384371
0.017,37.413581618528134,53.47639113953827,41.90128955641459,46.21197033885798,35.26258011719656,32.10015303725221,22.03421953544149
0.018,51.15264388173699,52.36501483691851,37.43700896793264,49.33208622563431,35.61629954784557,40.83431636100582,19.80328310974526
0.019,54.498938149205095,48.79248703670933,32.64214325323408,42.377808838720206,32.40604470626405,36.0223053046947,31.57968726975004
0.02,47.3667509683043,48.710491385759994,32.31325331965539,42.98147922135002,25.29400549639996,38.71775494026194,29.397370860548847
0.021,44.07350456053124,46.83521106815916,49.187245837476624,40.30698681821023,31.20005411793814,29.031583405443946,37.70509160684831
0.022,36.558130670240274,56.90833081560594,34.99379546822143,41.44849326687165,38.296408557673765,16.130764305931894,28.975350985615272
0.023,49.55544315447997,44.059981435300614,43.94234439088419,37.70095117223684,30.93026000527422,19.531378458735,44.932184701913116
0.024,53.800792523602084,49.04871139386335,34.649362406973616,41.7694053988221,44.717109132653476,4.835404455456502,41.94573026210971
0.025,50.538402100681886,45.617596829975106,50.496718230771776,35.54186669526241,32.696562180745346,2.7836192917441256,33.026334459325746
0.026,49.32360943298238,41.06561863087502,52.587973932833485,40.49621839187368,40.03758795085938,-6.2929278884039475,36.793499353402964
0.027,47.11192687462543,45.820376565649866,45.22409648403206,29.91401186594265,39.603412267828425,-6.758653593984775,34.19999892963327
0.028,47.41899249487325,37.77759821015428,49.599435089740595,24.244635473723154,39.78261493380377,-14.746848953567174,38.18853467205503
0.029,50.60841858432315,46.901877926801795,50.39193337287142,22.245527662082946,41.953149173279314,-21.55965243656877,43.395190526664734
0.03,40.09632180056729,32.85023738551517,53.24882572957755,14.339102321994586,47.28466855147021,-44.47813225880801,45.57890303305541
0.031,43.788760883419826,39.987978915980605,63.14652240026478,17.47339826407122,48.255518700715605,-31.914312635789756,44.345567935438815
0.032,40.2078703430134,35.27707117247727,49.036009528143325,0.41114112733619024,46.51541911139378,-42.069563446680846,37.90227107901836
0.033,46.99158355239339,29.689399923839794,49.9665247258546,-5.404555657563167,43.40760523463887,-40.24409630071486,49.01672582761663
0.034,43.86926708263633,35.80540254703404,39.15643025237836,-8.117072440572889,57.59506410546682,-39.742843951086954,38.79778953270878
0.035,40.08505340305018,19.505454633606934,48.117747320380126,-2.404748478945285,44.07901022083503,-56.81716443650994,36.943561653215596
0.036,38.475794725225825,18.992607762116148,42.22502637120797,-14.699390608765723,47.6619134734996,-49.82521616196569,54.48390888821613
0.037,37.47688567690306,20.027172271306075,50.34499264195563,-25.78946308199375,39.574313112716936,-48.282158618242384,49.561157168169316
0.038,32.750749642644095,12.520947106476042,53.87977164053221,-23.664146265198813,47.15354531665515,-34.688847519542854,47.768472155351084
0.039,39.2587416825241,16.431847937977743,47.65693607089823,-23.390599448974278,51.59052274083572,-51.088866708292514,50.525909831072
0.04,31.602163567156364,6.399055475232754,50.8591457796622,-38.96820501024836,47.52829998936057,-55.13038457095282,45.458794602480886
0.041,22.19632810318682,8.759251179027647,35.78982507708051,-37.60416420913586,53.99602516924821,-42.44166115990419,47.437280224155735
0.042,32.458865668336124,9.107217046255396,52.21124707191666,-40.13681508543348,54.032745092741145,-40.51150553166221,49.5661572185325
0.043,23.785642408456496,3.982697239614126,43.82461341128756,-37.41708925385173,54.37692621619368,-33.06829200967336,50.57547558174654
0.044,18.347248051100806,-5.846916121391493,38.66104379147268,-46.328291982201335,47.76301557068243,-39.60876897543742,47.6201566129758
0.045,13.632132700485268,-10.383115889466662,43.46142765201792,-34.87989524539712,56.7333117711193,-28.050448004824645,62.13065512153706
0.046,14.273145599223021,-15.814894727036942,30.559278388830606,-39.1589667516095,42.13408053904467,-20.829221840286955,50.28842957692477
0.047,10.715838061897596,-17.711961938460064,40.243781957112404,-51.78760544520367,47.48394904610358,-9.337740682961774,56.41119038445159
0.048,6.62479989464992,-31.947618291516093,37.75522136124505,-42.025952212647084,46.618934883116474,-3.096466453025057,58.882294159908156
0.049,-0.4187564456820585,-29.64256390054066,29.937599199257324,-47.29379892021939,39.62094868168308,-8.351708547078305,47.7867864868288
0.05,-1.7972628231817187,-35.62394770913813,29.108949217742293,-47.324332242239855,50.318333764760844,-5.544399912969688,50.42578472995185
0.051,7.452358744210807,-36.524797018109304,24.133824332411045,-41.25367330109455,40.56247972850669,4.8648322823234755,43.57338930848607
0.052,2.217329003744675,-39.035536962044745,21.071185031911597,-48.40067131117304,49.94455360638764,14.603341874277278,49.46428722379287
0.053,-12.347774008396062,-39.8599142874787,30.42236532112849,-43.02426383348653,48.83488477933881,25.585238025730092,61.22044040967607
0.054,-15.565617774678188,-41.02442565930987,18.41485665444509,-47.969817014440395,36.89703467895072,21.879281246317767,41.14786834724254
0.055,-17.384899366535567,-39.45508579026695,22.67576686853174,-44.07576217166962,25.734560165916008,32.562028601902824,45.07747314692112
0.056,-21.92657225058227,-37.562413004122156,12.994108928612082,-51.40411185117209,51.34163317959765,21.316555222452124,46.57633924141599
0.057,-34.895809637976384,-41.66399688575323,13.680561533291385,-46.85606775145324,31.551139569343768,36.09194320175691,42.83148831274393
0.058,-31.247285625368566,-54.86084075382049,10.954938406854835,-28.978399794576617,33.2690627026863,39.50658938806373,55.63432504413259
0.059,-17.966099755191955,-46.14106886225013,12.739421236285034,-28.52044880406097,32.77440530661319,41.12423021207764,48.370308527574494
0.06,-33.709486468242105,-46.6976873899788,5.373773580275782,-44.93146601627981,44.84495245746439,50.72676445622518,41.264674145807945
0.061,-30.382436811411296,-50.31846671907165,-1.6672055136263766,-27.789418885237378,33.935786614111805,56.26119267678698,51.16589494249126
0.062,-37.758880287011905,-51.37710096226053,-2.0023854562796393,-29.278610032753598,29.049508659827545,48.90799714360289,43.70379749036958
0.063,-36.71966886219106,-49.3973539070851,5.300513426641426,-21.6577138374786,33.66501281218139,55.7614774274903,52.56401559829392
0.064,-42.08708888070205,-57.67735966811967,-8.130602040754068,-6.33489700593237,32.094845749562474,44.60665350810792,54.39041391923939
0.065,-40.96723892054132,-52.27394947166125,-3.454195327949357,-7.568873886675238,39.40624686305996,49.49120562102485,55.17751388546141
0.066,-46.78051139065159,-50.561063976780645,-10.073331386691434,-2.1189612258213386,28.290976023371424,46.740474918012836,45.33312176107926
0.067,-37.261446797796864,-40.92390259410486,-8.401940574934827,1.2886301461412053,28.752916560201452,40.85963982350266,44.8423927051763
0.068,-38.03084711367798,-46.924503539911356,-19.204714490133824,3.3978259322458038,30.917634398685344,41.611551265402575,44.09962878744165
0.069,-49.58445879198522,-42.28487160497083,-23.54804658090974,9.186253296307557,31.95321498443614,41.640740895149136,44.935835210783175
0.07,-51.99279467780676,-47.486123060480615,-20.435260113465038,7.803529831705431,32.231692122924315,30.019233163055464,40.2012267498579
0.071,-45.610061802969334,-44.41341294006055,-17.47286505912691,13.932730473951493,23.536621066947827,23.83689224540772,46.5769580092685
0.072,-45.609984060350754,-41.174150200120565,-30.78991677533771,23.186816641785107,18.09159273292216,24.475157546359064,36.38878176896747
0.073,-54.32313355809656,-32.178353419597,-19.903688523874447,24.211041760612133,26.51513482125374,17.643002201037426,42.14055646158748
0.074,-48.92807989328211,-26.146708255288125,-29.30220929540073,33.21351356223929,12.112959552129722,12.742757994159776,38.97892821718093
0.075,-49.656091728597765,-26.20675508464242,-33.49414324273236,38.27289699471152,15.93764183903228,0.39277286826893326,31.084023235495003
0.076,-59.86899276562214,-34.63912809075702,-33.70059214782821,38.569486879088075,6.920707285322331,-0.12860721966577415,40.10394390846372
0.077,-48.78035479802076,-12.209924261125114,-29.567818548081362,44.75169746040374,7.884222633869914,-20.65330174623205,37.33823409225854
0.078,-46.50620915905479,-22.252913550430414,-35.323606546369625,40.85121943408636,16.710771393899627,-21.923460107532364,28.461783895330328
0.079,-43.32400580436253,-15.495004204725845,-39.992077244161464,53.26505346539812,3.6979708215849723,-17.199867973311157,19.26153424946112
0.08,-44.823719615575655,-15.93629645350965,-45.09857468749524,49.68582981849497,3.3437209670640793,-31.08597558861879,26.747807047703972
0.081,-46.16867888340919,-14.891650083529093,-34.5904294066844,57.67924533562874,2.373401087280342,-35.2653791888704,36.79677725375362
0.082,-42.49670655124162,-1.179540127628866,-36.48890574407376,48.78757241686208,-0.6480218826446436,-34.03538260251223,29.708740310580506
0.083,-39.13921746962875,-1.9091054547547173,-38.857228092058975,37.731956569537445,-9.5010885022972,-34.672109994248835,22.014059977972007
0.084,-40.84448962137735,-1.8187719549324197,-49.21079480200985,54.47193150851896,5.042376487399928,-46.038620989383325,28.415024144870998
0.085,-42.563289587694264,9.599574959875035,-44.66520865124091,41.33076046685553,-6.184068869008559,-49.37303116204955,22.589034480367424
0.086,-41.25700278774633,10.086847145840581,-43.84937741489657,46.33969408449972,-12.25564695196553,-47.917791485420615,25.972994502935492
0.087,-36.519949165085826,11.24567661452107,-42.211444319138586,47.95098688440951,-11.56230135215786,-50.55286687875206,25.706149779673233
0.088,-27.209539048153843,21.384404329111202,-47.79800132632256,47.56038815809213,-12.709690236924853,-47.13183890964791,31.014599453128007
0.089,-24.396306288452045,16.327588112343733,-38.34535808928183,38.18536287180259,-14.02866983178922,-46.99901718519597,7.279683266416109
0.09,-26.84356050252021,23.527518312693836,-47.31095990412486,43.04108441645561,-11.081697492464803,-43.97443789399707,12.817863557602728
0.091,-24.64279107844389,26.01882686166291,-44.61839687769732,35.03832047377384,-15.791162088761313,-47.44284837566918,10.856842298868642
0.092,-27.854625736609865,29.087620271654817,-48.49129721825333,43.36221401751288,-8.65885083592921,-47.61673362004297,14.806812848366132
0.093,-22.00257852169683,21.12004185586011,-54.66947606256152,31.501621002452417,-13.754247008099192,-30.064128295863014,9.247461059300033
0.094,-15.897902708844358,40.14523605814107,-44.49727987172559,28.63395983242467,-15.544544266148296,-36.121477167252124,12.0204528251092
0.095,-14.972619438158075,34.34798484712272,-47.07050473529244,20.64542439666924,-18.532348509851406,-36.881555135720255,17.920180282676636
0.096,-11.112360099915769,39.26004857663976,-48.994752059200366,8.13681585374123,-19.67480839356155,-15.041578796669087,8.951967780352339
0.097,-6.647881088087012,41.226107862156084,-56.04791586261507,15.626029158099866,-23.684202298046213,-28.04799319272002,9.940404592737057
0.098,-15.935364744693093,41.77075339059064,-49.28096644493496,18.21170443329875,-27.508513829955817,-13.58543151913538,0.655829928685542
0.099,-4.791403548606262,42.53135620392014,-45.35690730059514,7.323298275060161,-37.760503295342446,-16.71604308605021,-0.2995014599690424
0.1,3.935486750856582,42.35528091079488,-42.95956763212865,1.9649718168054322,-28.72011363457435,-7.016428003749579,-3.9879029571507463
0.101,5.197279388542945,50.60552808902714,-44.45021436732469,-3.4931674203619987,-29.494150429911034,14.618715215549837,-0.07475088274900199
0.102,7.879996657002344,49.543148492527045,-42.459290917266685,-2.9128130362676696,-29.677105282828506,14.401006828903293,6.723642861269202
0.103,11.222377270041145,52.24256435919462,-42.8983964069706,-18.61718978902903,-42.14690773862736,23.16672771038907,-8.508578536652886
0.104,10.027666333172416,49.50623266537757,-41.335807228414694,-13.59245271778553,-36.7514625146139,21.30864199551326,3.2349428337101696
0.105,23.697355257662487,46.828466009663934,-50.7779887250095,-15.829084706226766,-30.820594630048866,31.654571305230576,-5.762094305600479
0.106,23.45848364042184,51.23900014120573,-36.852112286390195,-32.726695912964686,-36.7856633684636,29.39277386737718,-6.60108951411088
0.107,16.900504103435416,52.82049254457124,-39.204906929697486,-24.3755686242781,-36.69940028801436,36.39313949141338,-11.383029818920685
0.108,18.537704172185855,48.584287639577106,-39.7447422717953,-30.432012217313808,-44.84990322483666,50.234780136727345,-15.489718454500137
0.109,40.005045422347976,53.708617633632315,-38.54866320044523,-36.142533226783016,-35.12546225527016,45.06710020280686,-11.121323079851633
0.11,33.9999892400574,53.445848843567475,-37.72275309679047,-43.537556422711745,-39.489461466010596,41.59019315083771,-23.493747524230553
0.111,33.44801490326049,58.22394265121841,-26.382506568878053,-38.305237881410235,-45.69863982716396,43.4134805363846,-12.48442603578373
0.112,38.72804111348685,39.37577922733348,-35.23110328702754,-54.636996674113384,-41.24467204981191,50.31446295087906,-17.3267948099381
0.113,36.316063270248016,38.52812119354501,-29.760248445435863,-54.5766075587363,-49.362223597239336,51.491384895488885,-28.965387539307542
0.114,45.90345197209274,38.05473086995499,-23.301773337947807,-37.9974833083813,-49.20997176379765,51.45248459740193,-15.131986014755121
0.115,45.088686500329246,34.58038417862933,-23.19719343834575,-53.4206999666566,-44.04397799036062,54.12979276112031,-21.2901324361048
0.116,40.213002227023416,34.28232921568264,-23.45832206873159,-53.49848424701659,-42.74661408521556,36.41317090461868,-10.842585590941866
0.117,42.5824528117188,26.669301281216317,-8.018063892843223,-51.76324629107879,-44.76622243529043,47.55253425076814,-39.03235211757851
0.118,32.73383230811848,29.163869189757477,-19.799129935450118,-42.733717034690684,-51.38116264021186,34.136733429974505,-34.48665773022968
0.119,50.11713303350999,18.535127140374524,-22.380056225336695,-45.493094565551424,-51.96957217385429,30.50326495059269,-34.336900845085886
0.12,55.359848852822964,24.671170110694124,-13.945817218070871,-43.93635213747439,-49.20878281131635,27.88524670529434,-25.627887429750444
0.121,55.68791415146404,19.093452482269612,-11.253271731541352,-46.05720018523384,-53.4083153312447,24.886187837861474,-35.11524267851161
0.122,51.20290312032408,10.555987497764118,1.308854937765826,-42.14965817968048,-50.37505540684982,17.189991954684327,-30.236446351555006
0.123,48.283526239064486,7.360519538516426,-1.4212691247144762,-47.22238504967005,-48.08262596614738,13.890428619522938,-26.098345202491462
0.124,49.957116666183076,8.217450637540841,-0.8554562108897168,-31.306671582171315,-49.20807603024994,4.856483486101275,-36.43722126512413
0.125,48.00253047139959,6.1742760207034415,-4.056064595939495,-44.56015342609339,-48.84933425889651,-2.439164816593357,-30.326040007119964
0.126,53.771117372164674,-6.605065828161713,7.100797938023225,-25.755105197678542,-43.65878580187388,-11.120164234200296,-26.909936015783853
0.127,54.13791698571341,-17.925864486562734,-1.855349763425993,-32.90250979903261,-56.37992567139,-16.10585947562593,-33.59060663292424
0.128,53.77884593423227,-10.14148523757246,13.281876396260259,-23.56190965605411,-49.188804769374244,-30.29838488181911,-41.89533588949166
0.129,46.90472323880206,-19.284006367649003,4.810688498175861,-14.706987969036414,-51.15402084028799,-32.02110833732741,-39.53819354467135
0.13,49.64273073250518,-20.629543458081475,14.079770839735732,-22.128382847891533,-52.146946617064856,-32.02932859846958,-43.746924109236375
0.131,52.751462372101315,-21.949329106663907,9.907363341842126,-1.4929868446884047,-43.89794694844937,-32.11685726767781,-41.54766760181168
0.132,43.66370926053522,-23.82873853086877,15.873911646587004,-5.901554063892916,-41.41554394197289,-46.24642429136911,-41.55384119293581
0.133,35.72834741685524,-28.413568759993268,21.677135742120846,-1.0234585042008566,-42.77434924907969,-42.060208139941714,-44.254980392464965
0.134,41.90796957066992,-33.543444908833806,19.558737001053395,5.002614373483767,-46.08125411298733,-49.776956200456894,-47.00325616648759
0.135,37.163234961704624,-40.75720159501861,29.3023121378987,14.096922256388382,-39.33961448513635,-46.51815500999598,-37.19900210938413
0.136,31.88233250443029,-31.105099784665164,30.187518393426895,11.242142827206777,-55.31638724969399,-47.44104583510668,-43.268091141642834
0.137,37.37684202875098,-40.5782844173872,36.302949580242355,18.640969759532144,-49.2322936146718,-42.48849257735847,-40.66804370513705
0.138,29.549474613624284,-41.03674529344984,36.84396349986608,21.638058958549887,-50.561200426304524,-53.844363581712784,-51.761160396534535
0.139,42.68262634392944,-48.804438379616805,37.88900531900464,37.10456444663084,-38.30537914868983,-40.071429548394065,-59.70631938024335
0.14,32.88386564135904,-54.350479369941915,28.478287797238735,31.01005795407876,-47.44317187604605,-41.31645555698911,-50.53248982171992
0.141,26.81530203199279,-42.56127328215186,38.08754632923335,28.88630950772641,-30.810345354863607,-43.949728057541726,-52.333279668399676
0.142,25.22995290553094,-39.78074894826497,40.73134224260727,50.09525023467405,-37.62654950595369,-40.852952310327254,-46.047528286950595
0.143,17.35245598906689,-51.93736925926278,32.44949539985042,37.20905836478533,-43.02984773791145,-38.79403259834547,-44.863673441679694
0.144,18.690495686850728,-53.58365077859057,42.16638274470069,42.794038594547786,-36.908186217806865,-35.34313719708301,-45.39656358508222
0.145,16.907235253173745,-57.6020492284281,37.474197418346144,46.951320779798735,-42.71953577571706,-31.504757284181995,-55.08570271791041
0.146,14.113949287170135,-46.550111242739135,55.96103016851305,48.67306912777844,-36.77361245646829,-20.18235373825778,-52.039488207126034
0.147,-1.4039186016358425,-52.32055455373408,48.3626121446207,53.92386077309985,-33.00866302648621,-22.716607920226828,-46.717707239249265
0.148,9.776709549951818,-52.94459169493072,51.42982116516385,38.737379889888125,-27.779787819304325,-23.23967515233262,-51.94114112007006
0.149,13.72535915362494,-51.139880563310996,52.97332781848629,50.05747777877152,-29.457089815683418,-4.380388900294017,-43.31495772379487
0.15,0.4406822390899771,-46.35520110480873,49.222290634757115,56.083717508837374,-27.357708592084478,-1.6937183236305984,-51.084263216963144
0.151,-1.1957379686290308,-50.57264420486058,46.37644236813795,52.81930242775767,-27.386248251739516,12.288850676031114,-46.155915658248944
0.152,-14.482933203190889,-39.341943238445936,42.451548165324056,54.117449795741116,-21.764276836210826,18.588616334097722,-55.12625866482292
0.153,-11.957769903534484,-47.34913928242638,45.92454126373192,53.36822920525136,-35.71174815466043,20.86210947378301,-51.57326988174902
0.154,-10.40509635011517,-44.1121724613425,44.985723828939086,39.00142306411002,-24.39688467826816,20.144955715938167,-44.29125820217782
0.155,-15.193969082209724,-37.54126548418512,55.569969099948025,33.756260505516906,-18.230854717315694,30.24659700190886,-56.31358875433214
0.156,-15.828124397084276,-32.998625426900965,46.795288965049764,44.77459084110026,-19.059164209391433,31.583421776506544,-42.035603611047556
0.157,-21.090179531768403,-26.050405661459763,57.397714279468666,36.269042115649775,-23.07325687074495,27.609023418464346,-56.083489188174454
0.158,-18.754994943730814,-18.80603200348272,48.90237243086002,34.569940269656215,-22.207947114723556,43.28421146805974,-47.26508434095417
0.159,-27.915250102829223,-21.88644641997084,46.948258287943844,28.565512688181336,-19.025116353703154,30.768383772724164,-52.97719978632765
0.16,-22.28912788620262,-21.009033618093337,54.26484650938678,23.06888555660079,-24.260120536213456,47.61374594159585,-50.79629376004753
0.161,-32.379457269582836,-17.46945544267815,44.26125339124112,22.159364932191554,-11.80800740452425,41.486713332209014,-47.24476719375211
0.162,-35.51988016512216,-20.71041009912648,47.60861517556953,22.649120749812656,-10.009969014433816,51.47245846661874,-50.35293851727915
0.163,-39.20901778685484,-16.57976850091836,49.03279386142729,21.13784446808109,-10.490436339080643,51.24934214111192,-49.40511842576283
0.164,-47.60975989774431,-9.009923813971675,44.392424902386544,2.9808289547631652,-5.134852713620075,43.711944197093054,-42.56199709907557
0.165,-46.91540637759638,0.5617923534557727,39.90462971702216,5.219155465538602,-7.554828866761913,44.34664109439537,-37.82948105060643
0.166,-44.662352750229985,-2.708656539201645,47.59658109978517,5.639194802686323,-6.052873010925859,54.70602548476339,-41.04995296905429
0.167,-38.67192377952603,-1.3892516092363751,47.19752650811107,-6.432063219853762,5.0842954848758986,38.730464580343,-39.88303895924714
0.168,-47.848547023122066,-1.4316665599919522,41.45622121155065,-9.219292125447534,0.35115666587007466,41.411209546835934,-53.44172906255278
0.169,-42.697446629857716,13.391485524440993,37.881264524670875,-2.091348094500603,13.605449459289254,38.77715479097855,-39.62665757981316
0.17,-53.24326673861299,13.82325000244474,41.621754918544326,-27.585451498968602,12.587376459098895,27.44470648562473,-43.56467238541005
0.171,-51.98120580739462,24.26928285918101,29.87474556955473,-16.864110952637844,5.021476726420304,14.871856776126004,-37.84732957537034
0.172,-53.476009958164475,7.806926811228884,32.7489204565235,-22.155375307473907,9.046117377776083,23.080729900047942,-47.27460085339581
0.173,-44.19982890455827,22.48360520327405,37.92669501751159,-31.823228349937057,16.913295432208898,8.637115636361022,-41.73341226027337
0.174,-51.77713710275268,40.20330578761409,26.16257916742454,-33.20067164810216,17.461699452347165,-0.33165271609502156,-38.80692204202813
0.175,-49.948162924757234,26.3673337146728,34.607740670287285,-38.33774452100418,8.06050719462193,-6.468718919398139,-39.40153138175412
0.176,-53.35003475543334,29.402864104935137,22.8326173306706,-41.62350109218161,17.278079803011956,-14.857185821475166,-29.657376801451157
0.177,-49.28293079557785,32.968664637045,18.01496973533996,-42.95652961261818,17.875489474553888,-11.927990858627965,-32.933260479358275
0.178,-49.00990426320966,44.32575620122439,16.336184358612073,-42.83057243771322,20.837113296575016,-21.001037690934545,-26.259907930999766
0.179,-37.8320848093858,36.03400989957233,19.918971360044132,-43.12515555998862,20.925432527729622,-14.734984164110354,-35.91044934875129
0.18,-44.74878577295385,44.390217851415315,21.731422914692,-46.893833430620575,26.926841181609497,-27.124302961650354,-33.17917635176792
0.181,-47.51684501920184,46.740737520630276,13.163366675193107,-47.19922638901605,22.792408594425876,-34.38647959356949,-25.18726592108382
0.182,-55.17009905409812,46.05262235734812,24.129961944924933,-48.98244420631912,38.338089486937314,-37.38948850876792,-29.514580201706423
0.183,-41.889305852078955,34.28400276989874,17.35494286878696,-49.973989366917344,23.382236199191052,-38.926665614111386,-25.572644462258257
0.184,-43.248347137565325,41.97100018810615,18.692274769880118,-55.34478475145458,29.1093879080474,-35.35914016409014,-22.14012777695093
0.185,-45.50822087177709,53.7663085729678,8.091314152126573,-54.969159525286024,22.49175818168279,-44.838697493251175,-29.050820624530587
0.186,-45.87486725498236,53.7948483033654,8.358517897676583,-55.696387054292025,27.92348802339223,-53.335733339941484,-21.100785585476363
0.187,-38.06807883223073,54.26297557680934,-0.055328697579964725,-47.25781500929879,33.786068989270795,-43.04448223228084,-25.59161470275607
0.188,-31.005417999133023,52.32557279624221,-5.688408892381814,-47.83027610103358,31.397888515822217,-45.26002657210094,-13.58618208030608
0.189,-29.43409696971243,52.62738228234157,1.663006595158345,-36.03101568754648,42.76085161725897,-53.229598204138036,-6.547932394360524
0.19,-30.445627525942466,53.32055785055691,-4.567167259745489,-39.95414159486662,33.091269713336125,-50.893013119785074,-10.211436552263903
0.191,-18.616367240849975,52.337800187201,-13.49290441263901,-36.840409923588766,42.896589951724145,-44.728230158512616,-8.865953807860155
0.192,-22.969563847591992,46.16375977658635,-6.842926605164957,-36.39504457587679,39.40522796899218,-41.07595426035606,-18.76585378898131
0.193,-28.004062884929986,45.824942726526295,-14.68910688408239,-39.22295291618269,44.92842456577958,-43.78889527641345,-24.163385586176098
0.194,-15.524922327261523,50.72667691652625,-24.358273193419826,-24.95763523328031,45.58598125199269,-30.6720726797309,-15.324858622116171
0.195,-12.655529209798082,45.48290991855826,-18.708067727766334,-18.738500136390428,40.07440915248266,-28.555366988887904,-1.5007959363560603
0.196,-8.255244450278715,42.385839002830814,-25.516594456206022,-18.58002812189288,47.033926509014776,-21.455686368016753,-6.277841154731363
0.197,-8.478230161585481,38.19013407223319,-14.87749431504576,-4.98492904143624,48.24824924774062,-26.70172236548624,-10.114426353358548
0.198,-2.3044844543345278,28.66597647842469,-25.721827995981347,-5.925110979963267,42.19838780349398,-3.2343931398801455,-12.968616238916386
0.199,0.5791218899639263,31.385846102673508,-22.384147510542103,-7.864057434033515,43.20662778736031,1.2463374878226876,-0.5079592420400851
0.2,2.5504329959177476,25.28568808299356,-33.09346188278828,0.03319753944266822,53.1492971338897,-6.443285703839444,3.25718856607281
0.201,8.415163672316318,33.60827560342714,-21.990039230230956,2.138353471790602,41.73875321830312,6.3041179368667155,-6.546545570652993
0.202,12.225861151512532,20.221919641527577,-34.534995026142234,10.604244917129614,45.573115660184605,10.976429227568584,5.158101620367464
0.203,6.13047940217767,17.457786152767806,-37.683860148197155,8.489051474730674,50.13563254003995,14.879433112458145,6.508554371154698
0.204,13.880469109744865,19.584731063083044,-28.4958019479635,14.11382118171486,47.61050538706911,19.955038005285687,1.6795696910017526
0.205,20.707723249462212,10.543532082792982,-36.491261622661945,29.10564203839624,45.743927868330246,29.04214385461501,7.467363201519113
0.206,21.222231304510487,13.658132439191832,-44.279190209951054,27.33755422388269,40.074789153352256,37.267801911972896,10.875468827101315
0.207,19.503428632899556,6.174435690714838,-31.45055276416038,31.075042436959613,45.83726927077575,37.44754787705019,4.108383055343808
0.208,24.506002730495744,-0.7656573375499127,-49.58261247677618,23.211352562955298,37.32144332494415,46.84950949382461,17.273487430188585
0.209,36.02252017505175,5.707190177007107,-44.05526134409487,43.85284423909747,58.02044863667112,47.90455154008068,4.995183858456622
0.21,25.637311606721923,-6.694228361283391,-40.53800039450502,35.69745452436517,53.78477834564506,49.82319188554164,12.056942018221282
0.211,42.51249594231729,-8.22055634936159,-47.283280254110494,35.52973939490428,47.344402101820094,44.194804537475946,14.142661858244784
0.212,30.76367746166816,-18.034922708816016,-42.74807618673343,45.785716778684375,49.227081351969794,48.82325474391172,27.192846204093364
0.213,29.150844152289263,-16.39970967530955,-37.404645041454486,54.516353547028324,40.29023574446883,58.959778664699776,18.46878471711716
0.214,35.48465895653663,-13.423037363372954,-50.804774189706116,41.646348975405594,50.382147010091195,49.50184585207357,19.23849176538585
0.215,39.256711126027746,-31.623058603292606,-47.55001044795397,45.909901278812036,45.65085695867097,46.199463764624085,23.543432786952184
0.216,45.13043569206154,-26.487217788081335,-56.04847937040214,48.32866855567795,48.23819109851244,40.107504283788984,18.952691719342976
0.217,39.84312016388017,-32.91854281432898,-46.41428743602237,46.65011134602887,46.72658686393653,44.71840140237113,19.53269774289619
0.218,45.13948052429095,-25.998226345437548,-52.743565557038934,47.02832448546166,48.334109089145855,35.464328868506264,17.904373617687238
0.219,49.753074582113854,-33.289312405716494,-49.35451697251726,41.606678324331156,51.39830790306041,32.58408878668722,28.293012435761348
0.22,53.08083922381647,-41.98040420389988,-55.32719857702723,53.28621549304453,47.82591117018379,31.43290902447371,36.01377983759804
0.221,56.399544677491555,-35.20865952152918,-47.441566519061496,49.675741011792105,44.54263062661338,21.49008254875583,25.82697490754112
0.222,45.770713323859,-39.94415528238463,-47.179931633239384,37.05703671687861,44.16869445130394,22.919101253205802,22.921720348095285
0.223,51.373338565705424,-47.539854000323565,-48.32097648365818,43.24496746476997,37.278159619430994,8.693922803293393,32.07726868413178
0.224,51.353687011827624,-54.70966854928215,-52.59341021802295,41.49529312875618,39.36757307420412,0.816407365267624,29.791773709374834
0.225,50.438993906014,-52.334972934406466,-49.457008360929244,35.266186855676125,47.487238725635635,-2.8933029678475264,38.00933725130072
0.226,52.399452925826026,-51.65734924637507,-45.89446499060061,30.7754320105992,38.28250900994198,-3.8384146757955047,39.29930262098361
0.227,51.59768780538206,-46.32881637452732,-40.851693342566854,31.79563983351736,39.45751814758191,-9.672180096403892,30.353357778702055
0.228,45.05262078420792,-45.181251965130336,-53.94892637050148,32.91275377226211,29.538107735218016,-21.529142660089803,44.77499529164722
0.229,53.129187584369184,-59.202117694187606,-39.896368114781275,14.839109016899464,39.853536461866625,-21.617945458862703,44.35838088995647
0.23,54.389761349648374,-47.52123025151686,-36.25744517478678,18.91576656652525,34.385786800285736,-36.918901431390985,47.1821988312747
0.231,45.634908931654465,-46.43723485377829,-45.50371717866484,5.468407001205519,37.15700740889375,-38.309349917668996,36.940250496688044
0.232,43.555570274602765,-49.98435563911066,-38.21442714291585,7.716521288233098,29.8243728202808,-45.58510868656024,45.05571716376872
0.233,45.973872899731695,-39.870292667312924,-37.016772885061876,9.031639475879825,27.881499293611455,-37.823132436817126,44.27081530332997
0.234,36.094687097126986,-51.45226036305108,-31.652761610155572,0.7121544536743207,25.004407580868225,-39.939624913329425,40.95239891313268
0.235,45.949077871970076,-42.78724042762728,-28.6158028895005,-9.838561408505424,27.713982734729456,-51.17824258662224,25.415707304803647
0.236,36.17987972982466,-33.079738548062565,-32.751181388603094,-8.788450980455785,20.508556067185594,-45.827618086776454,35.75228800479471
0.237,36.5817894777157,-40.76417534514707,-30.203529867625843,-13.729792711488123,31.317241218677587,-53.90021441247392,42.82662152104561
0.238,40.11573639919433,-37.62421806275148,-26.52762532781097,-23.782232423635843,19.49536755829382,-43.18849247795936,47.5795057334386
0.239,28.61837025015464,-34.916649324163565,-24.22275864804888,-28.630057550772516,16.708141852977306,-55.01781725476587,54.20811192955432
0.24,24.65863424788305,-36.35193276953037,-22.01267025957919,-28.107096445687638,23.573433657439622,-51.63260333781774,43.48967755946526
0.241,25.535079855457276,-33.65354590204611,-19.113452136314983,-31.47226980632329,14.395587883018761,-53.923139009415586,36.71609706520769
0.242,27.865590088834864,-30.29583908477854,-18.89932518820515,-42.10211834957458,8.389841633678161,-40.9045436514908,44.04016781010742
0.243,22.914103276238638,-33.795823072467755,-22.159562887565606,-43.16264985755069,5.558875533454474,-37.14331067984166,49.879711044242796
0.244,26.281009250471755,-23.44045429766069,-8.121770032733368,-54.65794120960909,3.7994141985674084,-32.728303361234794,51.295807197711945
0.245,29.07740031423097,-23.479451300857463,-9.372958997738584,-42.99137459713357,0.10398250518537466,-23.250268209714847,49.49209897009664
0.246,14.244948073769784,-15.60309961025116,-13.195151826421359,-45.01390993027861,16.378262294339965,-18.312622605215985,44.106664725762414
0.247,15.638535581933741,-12.461328657109433,-2.359704844201774,-36.25380581287664,1.297693201779012,-17.560131773592545,50.459988654906425
0.248,3.681590250055892,-4.267184430699357,0.8985236817496958,-60.090369420150665,0.9290839698578535,-11.423792509283047,56.76225215801914
0.249,2.4974031731659356,-1.3347977908255024,2.0577197095257023,-50.29846215103047,5.092163290825359,-6.3946890712311975,48.42013467649963
0.25,-3.433925447302607,0.4073138293997079,3.43126487491005,-40.1894210162654,2.8288579405836747,0.7588311751289147,42.38195714386759
0.251,-0.41524820468750123,0.9574680124254753,10.011687377091956,-43.91134146382648,-9.687206388834905,10.216411850590376,52.994077310433944
0.252,-6.675058551682628,8.031099688766897,-1.1761928347178277,-55.25721170959634,-3.7749843794405717,12.809507660618921,50.34372756096088
0.253,-14.717025705215345,8.406706889362646,14.986152146589944,-47.04900418533009,-10.282598246344952,16.266036353744283,52.98634571627508
0.254,-12.302411813419663,18.861782332367838,17.3122764723564,-46.139702810705074,-1.7589472025736228,27.09185423008255,59.81977540207032
0.255,-19.86782770703452,16.468799256013394,17.087239453602557,-43.91131301451255,-1.999025813960511,29.581448276391292,49.97350904644571
0.256,-26.90528914051151,27.28589844103443,18.150501737248508,-41.2530806125627,-5.765067293021056,28.95386922175655,47.508290559236684
0.257,-26.721359806144186,23.956621640432576,17.159028200411758,-42.28930872087005,-12.06505262396376,46.15937864632053,53.82731670833411
0.258,-22.262302124700824,26.148563365319323,24.676248849470326,-38.8439574637857,-16.155180307256344,43.402995000164445,48.878397014563326
0.259,-11.685695164354797,32.49865436956878,26.563733783577305,-30.03171984009232,-15.692066020908976,47.398219630825636,44.85691090778795
0.26,-32.39526592329082,42.72252838551316,18.858330793689927,-29.93011941546134,-20.797676041384555,33.93730630750488,49.85765342737365
0.261,-33.246657122585674,39.303405758007514,25.482001735219,-20.035938334644477,-13.30174568206102,50.06429304161288,49.32688738578473
0.262,-28.381407344056505,42.97802780458566,27.34802132830895,-18.822084847437296,-27.570454621226943,50.57177457024395,45.98813569679705
0.263,-34.09109009020798,38.9765559283799,33.788847859116345,-18.73300987838738,-35.420235072596,51.54814133731923,47.55692217061284
0.264,-40.284571076086905,44.10558611399278,25.601060409249627,-15.599287043182091,-25.283627539656987,43.740202252856236,52.077404075501875
0.265,-39.261741269484766,48.673631057049526,32.62816814980177,0.13275375901356057,-29.465224603465323,51.289143077793156,51.18498283273464
0.266,-47.383356454578816,52.93052064587274,30.982123533601033,-4.3206204045438135,-27.30429735486636,42.65520136838965,49.63575961959968
0.267,-47.4789623137817,44.43588133342123,47.968426494502964,13.770140829985092,-24.327965674972624,48.61092879639035,42.102436215112064
0.268,-46.748154802604006,52.86029583330995,42.519576755362095,6.778930383051974,-30.462223087833777,42.18502137944012,35.86250297511097
0.269,-34.906181780717105,46.45720817989436,26.601174732814545,15.244685500406302,-34.9355376866412,38.67052463153372,48.016850982483334
0.27,-43.828377651992575,47.14253046769813,35.47050565865926,18.13728955054742,-38.406189251360374,36.98021626849263,35.504404757989974
0.271,-42.90594548016495,52.50519572423594,47.164495238705854,22.469739071248906,-22.092917316340653,26.48991199788559,36.59667617541731
0.272,-42.15775814885954,52.60181696020055,44.79566855096059,28.52199583475652,-37.379764183539216,23.463315125295264,26.873874737768606
0.273,-48.55885604880947,46.989312858984725,56.712499822853246,31.865804154684717,-47.760724674646,13.255852104317976,40.974483218237836
0.274,-55.45943360935544,48.60243099854185,46.615281560241414,32.27257073537816,-36.049436732147875,6.423747103270434,33.30594109647194
0.275,-45.87573091431335,48.92429956133368,50.44012836272508,36.99328972242238,-35.8204920443489,2.9924835878839615,27.661796717112693
0.276,-53.76943634574917,45.02908613066873,40.09508987323113,37.280470087391144,-46.65995881967352,-10.109631488987436,28.173395364744167
0.277,-44.127490832637555,46.59099054547737,40.188034657496836,37.00418584944076,-48.364781758948716,-10.506888706852145,39.72843004528869
0.278,-46.93644442883216,41.28274266184328,40.89160008641118,52.52222574355405,-48.811559181669814,-21.922142076261792,31.452619238562956
0.279,-51.57949909231684,27.954860130118597,56.54322389780441,46.29702540539577,-40.24973695434873,-27.362062978282985,29.971868451206177
0.28,-47.171796645607394,39.72488017007191,51.838547110470216,48.040503396901734,-44.286670111239914,-35.37162411751282,26.985836568378716
0.281,-51.61186234981231,36.11203063564203,48.61484259056009,49.10905153594046,-56.632246736329705,-34.263791935900144,24.252767315682558
0.282,-39.888629262129115,35.820908113117646,46.29395904136595,52.39720617915315,-49.679294408739544,-41.29537657957457,18.7736443795586
0.283,-38.55639954906935,24.994475153135568,38.41068604405645,61.721107205391235,-43.19028428564089,-35.93750076651573,17.479496476410485
0.284,-41.04767892902409,29.063269899521444,49.17788920357263,49.36066929670044,-51.10403882094616,-43.59941815378739,24.211210850596693
0.285,-42.30377178340589,34.8992174762741,47.176051429574656,47.748247681765584,-41.06878314669066,-47.50563797141888,22.598342221009464
0.286,-40.07267890843293,20.16645730232576,46.03507140629587,57.74952770674519,-44.10403285713122,-51.55668543931493,21.853350834265083
0.287,-41.454003115055684,22.959274736838957,56.776031311997365,43.67177953078952,-44.46998749360523,-47.7862238261243,24.36084564498346
0.288,-36.49603233441092,16.422197316039068,49.165448626418716,52.42602167923765,-53.770049884393984,-49.68270061472936,20.07750929251776
0.289,-30.300568829406355,14.235642753927925,45.26392436778053,46.39324239520547,-49.94215586312738,-47.62892019172238,5.8984183405496395
0.29,-33.50039295277867,10.403682351019377,45.48783460049465,36.89744203459571,-42.85126612608456,-56.84965235748096,16.032364707279843
0.291,-19.22063379540917,-0.011953881513899756,40.89589026690066,29.997499273902577,-53.24806880261659,-51.62160025749064,9.564866045044289
0.292,-29.098773218219392,-6.07466297340962,48.52186823162317,41.116501479369326,-48.935100347205996,-38.45465665249256,38.62841947185769
0.293,-23.708170284708046,-4.714660892931217,33.832692496031676,28.090841464558828,-51.72328427382174,-41.759805773097014,11.595940316195799
0.294,-13.916428337059436,-22.16179065646133,25.944774867359385,24.009569571999826,-54.12622418412053,-28.771956979400873,8.86810471988984
0.295,-12.542495342671721,-10.1536643181373,48.26455284758944,9.965791190110437,-48.49576601377391,-28.47751583872255,14.878160144605197
0.296,-11.313230998690644,-18.798409525993463,39.50899059426559,23.109835141204556,-43.053560190219,-27.865127118591506,12.097349363924268
0.297,-6.19882791333266,-16.046042210490782,28.181171094955793,13.073897487053529,-55.020444161893295,-21.560311622722704,4.530805994962347
0.298,-8.012872438870158,-20.95132676413315,32.54405674742712,4.769186846397345,-55.42514077102252,-16.009103949408974,10.407766142223837
0.299,-0.10787768753034932,-23.691077009377718,27.653347444677763,9.47252375833262,-43.41903932081291,-18.225596428405133,6.052758045607609
0.3,5.255699885782863,-34.24060773336488,27.876000305084673,-1.1065069249568877,-49.33077709440805,5.10826484065957,-5.633857735073291
0.301,-3.1607672020218236,-22.515822941639627,24.45507459757065,-9.00603332176295,-44.90219038354268,4.039031912198853,-1.279792585579664
0.302,6.11849197916252,-39.979895645324504,18.902196232299012,-9.149130059668465,-44.76832167612354,12.647561631308369,3.322486480742001
0.303,10.880545825536178,-44.05043655155345,26.089644739872583,-17.81498946334777,-50.00776140872315,10.7815208570771,-8.050747230322404
0.304,13.649718958856674,-37.125752377466384,24.179532972182376,-20.623758964745143,-39.53173148345727,29.713648980944413,-8.120068431965883
0.305,16.667472122985174,-47.87119999407775,29.66441320387038,-24.370735255427746,-36.10887409936004,27.804994607456113,-10.01243470919179
0.306,26.39899995979389,-44.15223672072861,7.895777663765351,-24.97339246706435,-42.87559394505751,33.16156882785289,-15.39429141021899
0.307,28.93175015246927,-49.52336318620706,7.526282592888713,-31.061946839051345,-42.81230735068324,39.51867726762278,-3.2073376497678785
0.308,28.17026805443197,-50.82031596316813,13.190651709668407,-36.27202879726612,-37.798132644685666,43.72683194932735,-5.455674896293384
0.309,30.562722622654423,-50.42022601454271,12.237707591653503,-34.20535715064324,-31.66765678825322,44.631117916633244,-12.375451154164624
0.31,24.856958995716205,-46.82377323256358,1.8029231239198191,-40.143610984887914,-45.88741062214833,56.6797236295796,-16.876232570559004
0.311,28.48546470377842,-51.09768731601236,-3.096554348178356,-51.481943090833646,-28.353552356848112,51.60259706958479,-21.199654814106665
0.312,31.864013250026545,-59.26092869033813,6.636115033222607,-47.37579995397806,-37.41050336796941,45.562918163070364,-15.901892405774735
0.313,40.407998911243055,-48.84372856711536,-1.745730335901688,-45.26106744938249,-28.18720435055853,55.115828576322905,-16.491472487560404
0.314,43.97042240383854,-42.14367718256773,-9.267633278685704,-48.299013825168075,-35.59872567185486,55.71693154379717,-29.309213205879985
0.315,34.08333726247547,-51.83327566984376,-8.323809998916875,-48.34535711729222,-27.956928880249645,36.74912969828081,-27.089132826604278
0.316,47.04232581177512,-49.22017959440087,-4.153439988630474,-53.25362834569042,-33.3863287080144,51.89235069037285,-20.851259224694545
0.317,41.4443835883299,-51.83624406604162,-0.26817567304249046,-47.97857208023416,-32.927514160516814,42.50735247188509,-18.31378632707107
0.318,44.39590788349904,-49.84771302751933,-14.446064840680483,-45.39525727891763,-26.780668572917865,39.93590906389789,-27.849009145217114
0.319,49.25618311081612,-43.55170137088163,-23.55810042588563,-46.69674733666456,-27.279262934437813,28.958259636076065,-25.55031054427126
0.32,45.46850201480273,-33.95424468224204,-18.641819668788685,-48.25667954769798,-29.85339628738305,29.60321136229608,-22.402346248750426
0.321,52.13222044833562,-46.91499743399979,-23.436839607335475,-45.041075505863034,-31.180750377127943,22.99885987545032,-24.983865982924282
0.322,53.13678409853796,-40.326434474495194,-22.302777494089,-50.11459373769467,-21.259449790016994,23.378159605866426,-26.58627925712269
0.323,50.53426737429356,-40.25141078282662,-29.81613905189829,-36.50923962310657,-13.282373758901333,17.386512433148052,-44.99302359442204
0.324,55.279909126525894,-25.12329925368884,-35.55450674770435,-48.90548809700627,-16.001758424228512,8.957158314103392,-34.20810422269066
0.325,52.74270488914956,-31.80072200174077,-36.95196781338127,-34.30713660883455,-19.165408044475047,1.4657052411218359,-35.98187771983131
0.326,46.58750975865664,-15.396535778752593,-41.01142678904201,-35.30608587851765,-11.751874443627061,-14.568928289563083,-38.0159242049934
0.327,46.54806504284093,-20.712162277075073,-37.66365433450315,-28.95181162934784,-6.854582988828752,-16.473443285255005,-36.280415490715036
0.328,39.21281742134168,-23.016380509308444,-37.346143274999456,-17.293930228756864,-13.36163832920402,-11.548275709765601,-48.728241529030555
0.329,56.39658688014269,-22.31955209206646,-23.520320761280672,-25.752393581514028,-12.364906152846642,-24.687817773697677,-35.60660940258947
0.33,46.954254740530644,-15.736771958827607,-39.18087436694187,-16.576058756746615,-7.468360738399729,-26.674097607288367,-34.82057955974576
0.331,40.20137053530691,-3.8793752377301924,-49.4331936984932,-8.615751153163215,-0.3467522979663302,-28.359781650171094,-43.425961011850745
0.332,43.48654177388403,-10.395977499036457,-29.302974105314583,-0.2160263051445206,-9.526489245213309,-42.378122596829215,-37.06678351069701
0.333,48.18494704932094,-5.730890248391397,-42.86515649657611,-9.622405820020713,-6.4873040947432665,-44.20534966399011,-38.10851432760602
0.334,42.88224552050102,-2.8987322451552604,-35.50724889125233,4.100826244500431,1.3578759018871183,-39.60594424815622,-52.27800800575736
0.335,47.34393582821536,8.646063195719371,-44.04289128613311,6.716851544488932,2.806634097888463,-50.941873545107306,-46.70227954278821
0.336,39.4303702368138,12.690894590756926,-37.80574345355294,4.487966848773143,11.591504511582334,-51.974790499327156,-48.972090680411
0.337,39.51711659113921,11.398344431285086,-45.25023064423744,12.557595148280363,8.849610469619707,-45.97976619948025,-54.05022814040712
0.338,29.44226689709148,20.97889694306516,-40.31462691067359,17.049268954743724,7.485991871215961,-55.325156064825954,-45.815796382239725
0.339,31.83305737813036,24.667529853600975,-46.79372158813692,25.575028731583462,14.554991646679882,-55.11297290260053,-45.526635649599434
0.34,29.813841415009726,23.81177928940376,-43.7797820580757,23.473602067464746,9.169689129251644,-66.08384022914917,-38.257806439607016
0.341,37.406962494656355,26.250953201807583,-52.52017023048186,32.399611812352425,10.482881123491875,-50.91024107046951,-41.43273403875759
0.342,21.56437944009142,26.555626590639605,-44.626260510247334,45.45682325608092,10.78096422879553,-43.14315944285816,-45.07560222206984
0.343,27.731177972994082,31.097196427967564,-54.41148378127217,47.22337983501438,15.17390327748472,-35.93431057589024,-52.837861185455345
0.344,7.535044136885459,35.346162673988,-55.75348912882263,41.65226239321784,26.02189411531106,-30.282905235601792,-39.904289117361515
0.345,17.35936023373132,48.3695808423511,-47.37933613537886,44.4403035121296,29.872347227845193,-25.231538745218742,-46.72999971192653
0.346,18.072849167015377,37.82635314073393,-47.80590798647251,51.92050005250712,22.32839428221689,-31.261428513432453,-56.73986197649531
0.347,6.422738275140793,46.3058959624765,-54.629354622591656,44.10831438368422,33.420736901644524,-11.19446510414507,-43.2245270556928
0.348,4.199955935457178,38.34505257676589,-51.70330498006402,51.14527506803692,25.14159291438474,-11.853013075245377,-51.898866890424294
0.349,-3.2129914934966863,43.349090339616076,-55.136482309333815,53.52234721022562,29.82541374523651,-4.779695772337515,-49.724900986544945
0.35,0.9489995049146033,46.133096437759335,-45.669718370651005,57.984871073535246,29.093617430848855,0.1539724341314675,-51.15581856067236
0.351,-13.283278649289949,49.3335192333133,-50.30976291654129,47.031107541906174,26.613499161487326,2.8895552939232196,-50.59941494638503
0.352,-13.733602023593985,51.86462951245267,-41.3533488966001,48.853890185711265,38.16414984554801,10.98418046452427,-51.86092003252542
0.353,-11.076481540971274,49.30258622148303,-48.74530325961022,45.00767379490059,39.97811727544993,24.60640441747815,-62.668724745377624
0.354,-10.883011116268154,48.45560418478429,-45.812365210980644,42.7522438484312,36.1782906823305,19.230929922695566,-47.440379164651596
0.355,-11.680037774573204,47.94693577914195,-36.09330515973775,36.81223938143063,39.80586484643981,32.677436650771355,-56.21746407701096
0.356,-26.9395405686324,47.899032791427956,-41.97968628546365,33.67317102361628,30.147580896379072,30.040974105968353,-57.957728636243154
0.357,-24.388499055488513,43.92811139677846,-39.666001522388896,48.51594001477054,44.51197804116689,32.31267060268031,-43.688458867657815
0.358,-28.546690704426187,40.29728108158485,-41.30344315153814,41.19585381701437,39.28276087935779,37.88935822327036,-50.1611637528189
0.359,-28.92040602764362,43.10060914135719,-37.675466263142084,33.16315847464941,38.620454658010146,43.52373091502639,-45.47457249407398
0.36,-31.030639344935985,42.9885469768689,-32.90506014216246,36.666341879118264,43.403006193898776,51.877892599362596,-38.06186939717747
0.361,-36.75908564457118,33.0075642807023,-36.47539687189196,27.649121156126313,41.569514312555036,53.156364589402,-43.846561782013794
0.362,-34.292232740103486,46.01374241888682,-25.267478801920355,31.69333483452945,47.218445498544945,46.866703349069205,-52.452355906564435
0.363,-32.63403855977709,33.62134920414207,-29.369600116873535,13.673841711325483,35.3430050177235,58.42952421153759,-44.957806663569926
0.364,-26.745149115322157,30.40859409620125,-23.068103704326475,15.721584808809085,48.05657756853509,51.03630677644873,-47.09033153305628
0.365,-36.50605881150562,25.98607168102176,-14.04875828386131,5.258999838887242,43.64581924661984,46.5890484671112,-43.2824791487538
0.366,-41.46019871861044,26.842193994672108,-18.962635810180682,-2.982161522780131,46.941810412173936,54.100534908949356,-45.01430465060006
0.367,-41.50804713245484,33.14323870858925,-14.726556563460576,-3.9563438209727453,48.37612201452808,48.487605435914915,-39.73232251011606
0.368,-46.87634736234779,23.09448459647402,-14.089080704236467,-6.42724041647817,51.55264234534028,35.285338354094726,-45.56012949547041
0.369,-42.103776327732454,23.156982767324514,-19.134249567373338,-15.166309850540173,51.47488721074642,38.811570073311806,-40.73516054801255
0.37,-43.798016432922886,14.394742616829586,-10.021655792409586,-19.588363214719536,45.992207658726535,39.2614267552972,-39.8818916780196
0.371,-51.965305499386005,13.36121408695347,-13.902026874840589,-20.627297257023262,47.54150315114728,24.275015924085693,-49.11194004972769
0.372,-50.476425488063,17.86866895047693,-11.308502143488347,-27.07983377964599,49.396442461273494,14.049635252887468,-43.342377362441454
0.373,-51.19339870134711,5.832645443434549,-11.689282894836357,-26.44959956581039,47.41623536618207,15.953749658145355,-39.76458882055205
0.374,-51.45335479909642,-4.648056094129012,0.9866761830508097,-33.28578819275798,48.762182340968266,8.119131596740395,-35.25837144537147
0.375,-52.57773153874707,0.7875979980605327,3.866149041842478,-25.733038177487394,46.41775396708191,5.610530028769752,-35.624935481051864
0.376,-45.32340386757536,-5.225062283090974,7.496910471398484,-47.30256886409552,54.51282062464185,-13.175681822527006,-32.76589064497783
0.377,-52.71666193887428,-6.133111157148664,6.501298363041261,-41.54966241361399,57.77713953372247,-11.003259127151017,-35.0369892961066
0.378,-49.00867727938389,-12.05724427525093,3.4562100449773165,-35.2040452443043,44.33387900330941,-14.840957731484817,-28.03726712646654
0.379,-49.235494793339754,-10.074850835424607,14.803852660845969,-41.53020233305698,49.034817207961304,-19.329032179552403,-31.21867860378948
0.38,-41.21951747169293,-16.80525103534406,12.103080588233322,-55.210474868710364,46.401056040543665,-24.48424753316165,-27.797232916048863
0.381,-49.60203012097807,-19.541789104965417,14.101709907078806,-50.72237425921691,50.52349874615887,-31.636892955707502,-17.27734406288477
0.382,-39.37205646801816,-18.928378150046633,27.290193104410008,-45.83150150277314,46.70715692194079,-44.504303233211225,-34.04109393759927
0.383,-44.606976241126176,-30.5590626430923,19.601944015054816,-40.1483271119628,38.88075060220226,-44.722561766217126,-14.85420243009435
0.384,-49.463861524677114,-33.30782892951476,26.083979958148134,-45.54348612955596,42.61267452259466,-51.02754398217099,-27.379553121554327
0.385,-35.31170177257894,-26.468987609026204,24.915198650463427,-45.597836093436946,46.06206816356252,-38.59513934926545,-21.32429807952284
0.386,-31.263298506809875,-28.393106253319683,22.752721018610433,-46.45337237731224,46.61232491730744,-44.073295811660536,-17.363380160751305
0.387,-36.2427260326156,-34.80364215614702,33.6757716741504,-52.25537284689579,40.044417130514965,-44.09720895256916,-20.68986404824624
0.388,-36.89571037198207,-39.732347801580104,39.43732840300132,-42.88844650877278,45.4561823247768,-53.83833650755908,-16.36357931126345
0.389,-29.865424509332783,-42.33577704802469,29.447879269007522,-50.281111176413056,39.10650713304881,-42.50724508184134,-22.893763378276976
0.39,-16.57067885982371,-42.34705584984845,38.13599103623118,-45.930037336674566,43.67038287675735,-53.247041879702024,-8.596632818945682
0.391,-24.86454808262992,-44.25689650995176,29.677013723810674,-32.93911762889576,40.71381126468891,-48.440666608641436,-5.342927814977504
0.392,-30.356861417818397,-54.52682193642546,38.15123111235255,-27.274314696577356,35.882432630650946,-40.85672316268203,-19.6081658804427
0.393,-24.939003600736882,-44.28454037587392,40.570305751460744,-29.400983051487994,31.54372013987443,-35.115948329607136,-10.616348200833997
0.394,-20.23121687904972,-48.05784447123778,34.17678392602771,-28.837859264773922,36.26669893159929,-29.421777605394315,-13.61347726611925
0.395,-8.648017255123811,-48.370656416750705,46.621698201958,-24.971822632179354,37.16435420765776,-26.603189584915377,-9.84562038402307
0.396,-19.459034117120346,-54.062220189836694,44.32491322925938,-18.471203102271232,37.27059869092215,-20.574418771179555,-4.439591730194609
0.397,-13.916689410519787,-50.63766007023383,51.76986902234653,-9.35025877938847,36.24649846849499,-22.12160883620605,-7.697053684518735
0.398,-10.226473683187116,-58.251544916495604,44.52333808597134,-6.574794186126283,41.545882488989015,-9.514392056272218,-6.511659002532053
0.399,-3.133166662134748,-53.44038954711559,56.55829965057276,-2.1477982064108145,37.68437208175131,-11.564141158214344,-11.63041189462309
0.4,-12.13004080940395,-46.19355814412293,44.30239088700702,3.674346002575484,23.88403604406357,0.5285953779337934,1.7353922866619156
0.401,4.332164815056384,-52.60594173365531,43.47792610452373,10.904950839223323,26.554456717365316,1.2471095236784517,-0.8805623390124628
0.402,3.170470214657743,-45.70519863292885,63.24383136391327,7.419182744761624,20.23287312354732,7.494899474867751,-4.262488460503324
0.403,5.090687658779981,-46.73410442601409,49.242389189982084,14.926979543548239,25.099133764017427,21.36016514501994,2.736877804811726
0.404,7.29172516088653,-32.34243483374576,50.72388229956654,18.52450864980163,26.751530592732568,30.55402498493552,8.842969222006579
0.405,10.513130131781953,-40.51376550111344,57.353576946412545,25.30327520917209,15.98694064303797,24.735438149274835,10.421246936002438
0.406,12.631193525241933,-26.44914806795355,54.676301665000985,28.662526289145102,16.980411187686364,39.739965031229346,4.18139143370418
0.407,23.398065586747574,-41.065970319171925,57.885431029841854,35.44320116884686,16.42324356974141,42.160608458030026,7.033903689231472
0.408,30.510322998936477,-34.129663811121034,45.51970782650117,41.68964877066246,17.337631879264894,40.61689705773783,14.353729747813894
0.409,17.502823802639075,-19.47662446352262,48.32599617963507,35.636703835903745,22.203633020603128,36.58238598668353,18.886917964311763
0.41,13.252121301388602,-28.543299915669913,45.73665431912849,29.49532602278152,10.742929137148185,52.13283600589787,11.68461496191527
0.411,36.94769112170038,-25.121416586953572,45.645789483829375,38.91819517121052,-3.6410416536042547,44.61015656980051,3.9131387567562186
0.412,43.18516672731786,-10.370459361079249,42.93711377791137,45.607019574478485,13.775398950025664,55.189638317732644,17.740103632595382
0.413,37.99233845669066,-11.250177946877944,39.14691718793921,47.69638713071824,5.362217861441197,51.560152956652956,22.66736354615031
0.414,40.931795384388124,-11.546809304335904,46.211784080859424,42.008744220589634,0.3701663665152326,46.810554826308305,28.29819552058328
0.415,47.10665232916989,-5.117058090384625,47.67386578554973,52.70708298636287,9.231906117391278,46.14975485065334,25.778801424079184
0.416,42.10993011920226,-3.4714566930238795,41.39067299646372,48.89116994170238,-6.03812773348132,47.567890473725285,17.78592908772519
0.417,42.26310222935958,1.3724799178408338,45.143124369130014,53.453228229686836,-1.8243802177253543,45.69860247953764,20.178957547723588
0.418,49.749027801609984,3.350166228165838,43.3914242882733,54.23489482140641,-7.029678643263616,41.12828579442157,20.85549216036445
0.419,46.55287613005824,12.379806294470175,34.75945437934357,47.76341248172362,2.094666578003663,31.080128274364174,30.4344348700829
0.42,48.440713758369526,17.945205863480233,32.36971491328933,45.036977886505795,-9.361596033836497,29.224951079082533,25.273460695211465
0.421,52.00147977826207,14.907660942705771,41.41893809186115,49.393271068680804,-5.614986539871664,17.588047744495785,26.497367244560476
0.422,45.57357199109647,15.159785449402795,32.38861676464775,48.61390432926031,-6.252400857235996,20.83359408991507,43.920087783941526
0.423,49.40875671015257,25.161567381702923,35.021584521108764,39.993695956734136,-7.744380762884568,2.894875556893318,32.71018931830464
0.424,43.69535977085452,31.579629052937634,27.213359507555808,45.55207513297198,-13.42830768598243,5.515395121550749,30.15421468098509
0.425,51.269151239331556,33.22632052954653,24.038138597436213,41.74188636757002,-17.199509872070667,5.345357273935373,35.504082868878065
0.426,41.897844713315735,32.44740952034956,25.293297504136024,39.95399895378587,-3.7448923264852247,-6.413473311068841,33.142396250240616
0.427,47.878457604228245,40.51571938611478,22.555061880840924,24.3268756771389,-29.81353210427868,-15.791854944399372,41.30712273054464
0.428,51.74970393535994,48.78190186691077,30.020454641717187,29.774472849527637,-16.298659568353735,-23.399308353513504,39.824693101799255
0.429,50.18368270204277,34.9688162359397,17.068873883227035,19.14508481044311,-21.638538388215984,-32.80117352526775,35.775395056838484
0.43,37.03577215482204,38.79472384341089,18.38153085266199,13.00614197659888,-25.146717652734175,-31.962542323683177,39.970138620440096
0.431,40.674248133146854,49.49681502307995,20.690017673376033,17.971293441205784,-32.89406944110064,-27.023933490848968,43.59221030292022
0.432,51.48270369705194,46.950648710943916,13.163960281890857,-2.4158539659980667,-18.10280971523862,-35.351041376754395,32.68585694156057
0.433,42.575115029593526,43.80136957815268,12.240439019517169,-1.9594746008209787,-26.12047993612531,-40.85600188703949,46.33093000288899
0.434,43.049049168633985,55.28862670742859,11.644453339947656,-5.412728593657069,-32.81092278600917,-44.15920828861554,44.53314513453509
0.435,37.805244720850546,48.389885631685786,4.486516118109673,-2.308745234910125,-35.12261817454231,-44.535532784321894,45.67646778982907
0.436,45.76461908902065,49.80081635411164,8.938573966143032,-7.306789355956412,-35.33399282214017,-55.26494232685702,42.939510722266355
0.437,43.793906280151674,48.781799800056575,1.2997697632349596,-28.923221401232205,-42.33283620143641,-55.42307087984444,42.75402966728414
0.438,30.63131431562244,60.08163314075557,-1.4596256508280607,-26.56611436228946,-38.540827764785355,-52.02820806185732,46.83858661476209
0.439,14.21843886196083,42.315099465591956,-1.4515971889929125,-25.0814070316744,-25.35439011917525,-45.88645784740345,43.41891654879787
0.44,27.030756512885752,52.331668508448345,-1.2060117455137096,-33.13255061181702,-44.84475127263591,-46.737103883729596,49.14763784936765
0.441,26.55062848839238,53.07650374042694,-6.169049122129239,-36.21525461401576,-42.0071565152773,-50.28577979328809,49.53184276646904
0.442,27.525687419492094,51.53530402609739,-16.76369816736234,-46.20388983265397,-33.41802965975208,-37.38953273289583,46.026157492490626
0.443,22.46559292044077,57.85806351763698,-18.474015211512445,-39.044632977576974,-39.62116806017408,-41.54352037005148,45.93486302406039
0.444,6.761543807765907,40.18680363273429,-30.691660017374627,-32.880476784633736,-37.26080202888092,-37.398858904160846,49.008469814242446
0.445,20.132586451418874,41.23303049357788,-26.782956975785893,-44.16814804950081,-44.23537661735689,-22.553150305375823,55.25604508309338
0.446,11.941480932834104,39.62690893760848,-14.287960298372903,-48.81893418453249,-51.71061773940243,-21.672134308531835,52.546842234043474
0.447,7.245877347803023,30.377057685358412,-23.34908024423202,-35.925593451501285,-51.17263535022807,-21.70687164357163,57.72441042324888
0.448,2.3207843124752756,42.75584954203411,-22.241851229276214,-60.14448061854481,-50.30538271802509,-8.138157505492796,48.0082757511199
0.449,5.320987070466963,35.37496915086651,-30.4893737518437,-50.15880882573816,-42.342466734266644,-6.539444943484763,49.21143691318207
0.45,-0.16065263031815225,25.236589858235657,-27.63603440165304,-44.851542993891904,-44.49276935073355,-0.8659108636807528,44.65627887693749
0.451,-8.006668020414173,22.29261230643718,-33.26803541742667,-47.76882154608392,-49.41236108020282,7.710692437494085,58.343641045284784
0.452,-4.521299387691125,21.442173579427177,-27.241536834090603,-46.8932250356467,-46.23470280619978,8.03534655278384,48.15910497853735
0.453,-9.235139987290841,19.205796028771633,-38.53988827107434,-48.0192281269555,-43.38998199660108,16.16295731093029,44.676510402988136
0.454,-20.98050789752076,15.609433086893505,-37.7582488603449,-40.725001151892165,-50.084521133212995,20.439620500724423,46.16489402810535
0.455,-1.959155636421821,16.13583938991604,-41.170731565764164,-47.86166848665589,-42.995016202402795,31.540333949663104,50.67813645542414
0.456,-11.591843941673005,3.3753495044482804,-43.47309070158859,-48.39888374489427,-50.298152162638544,28.606662863297206,45.806739686140794
0.457,-27.343095476946456,9.682519276719452,-48.55118925631098,-41.372257452801726,-45.6499953204166,30.365094763738092,50.45321843960412
0.458,-15.553315350026606,0.2741673118546304,-41.99922600583306,-32.75849955831546,-52.48262808721255,52.740073038083416,45.07721220120269
0.459,-26.53091840142946,-1.1157739502753228,-44.56270481515238,-34.13997169287233,-47.17876604457108,49.53026269609884,46.414778697241985
0.46,-36.6440777006244,-9.661731464113641,-37.03716315382493,-32.11362743869374,-44.39160259968094,46.461361275135964,51.42725345762945
0.461,-36.85562143154175,-8.223910298528278,-62.72029749002397,-24.15022881591416,-56.73183474822668,48.62481891854839,50.19815358301464
0.462,-41.503095740450284,-17.23123067539732,-43.21354603327502,-14.203353690569834,-49.628612196125594,55.306641477300744,50.284930181128665
0.463,-40.67036765036208,-21.05537208739154,-54.95355364626286,-14.343620438387086,-48.80253576190301,46.59056152088342,42.725453508164755
0.464,-39.13480683884454,-19.786617560942002,-46.414922612596236,0.4619318812768345,-49.70983266577373,50.476939036368776,43.63778943867192
0.465,-34.429006336652115,-19.576080000546085,-48.8380627630629,-12.78763379159766,-39.952374152902536,46.95967620795201,38.37989820672736
0.466,-38.97344605741691,-30.384099960004914,-45.39225744542872,2.997391627933445,-38.328331512850795,45.74426711450677,37.99868566211398
0.467,-41.78903498399772,-26.402631212509448,-56.06250979275154,-1.8268871697029183,-56.407624228564906,40.307241596954505,41.76784097011512
0.468,-44.00783402526495,-32.15691964115041,-48.00863652813337,3.8863969739072295,-47.82078031225682,41.21622081050877,46.505478013572315
0.469,-45.59569490796885,-36.83148407426713,-51.87391129633784,3.5716433062489727,-47.518965479035586,28.803014825214685,39.79068376104717
0.47,-51.43764799755998,-36.78670207514283,-48.19916732918149,17.10116826681727,-46.26032782618253,33.04386153203177,48.21078769591494
0.471,-47.92613745820873,-41.403766693577296,-51.484060831770975,27.127725204699495,-44.84661200465193,23.673997885169236,35.780958518226015
0.472,-47.812505208672114,-50.008984787808565,-52.30281596500887,21.28295295242588,-48.11539810353062,17.588518603055928,39.691242925943236
0.473,-47.414036207825895,-46.03666055142731,-49.1617830966145,29.442159385689514,-34.74514113295453,14.557646458674832,31.249465974533923
0.474,-55.8508401502783,-41.441532384068076,-43.84406878188662,45.39169878514865,-37.96887591567982,9.259690144232316,35.71399019583368
0.475,-46.69064795929873,-45.29859684112762,-44.74851065122445,36.79426013139161,-36.327214933727475,0.3912611260340235,38.36118704136711
0.476,-60.19262102685436,-50.56467464903357,-40.634523879881165,40.75128138109807,-38.266685985951476,-8.595686011609438,27.918726704415853
0.477,-48.6804056903692,-49.33946715905181,-44.06124732838052,38.48346485430827,-40.53953230956872,-11.38878327478811,31.527069662666236
0.478,-46.64194081291717,-53.636623355426075,-52.51064756466793,34.986813336176354,-41.22921232274295,-24.38414749673644,34.30734185810092
0.479,-48.5448674055281,-48.4566271246288,-38.975592844603725,52.32180559052114,-46.37827538705277,-27.279944337561755,24.04843577501576
0.48,-55.61703735764236,-57.87668244347813,-42.412621320015006,52.3166827136367,-38.5561740342796,-31.677386582417853,35.34586771319631
0.481,-47.92215940025601,-40.50518054590117,-42.17919335003478,55.51373821496855,-32.994732172715985,-31.700602252509974,33.01061256040111
0.482,-54.66076897769058,-56.262642559959616,-29.364623792649507,47.553369297890015,-24.782661266391138,-41.040203244756476,34.810113142747014
0.483,-37.95622646234116,-39.921529892846976,-38.68400122272183,50.46433513161796,-26.854776955097375,-48.13396862988198,35.15808724820615
0.484,-43.16762537888333,-41.16071230811978,-37.7955313708229,47.07591478039641,-24.62619184722467,-40.4143533000363,15.199704301570929
0.485,-41.190128130278374,-54.13708540858423,-38.75300639106639,50.74986238131337,-16.347248224830054,-52.157890858430505,37.61555728529037
0.486,-39.513561702194814,-41.115397072652854,-25.33546842699453,45.78080194730521,-22.094736232024992,-50.10720367399343,27.648642055196277
0.487,-28.11852752758305,-40.833046892362184,-38.72029352439317,46.82224037417055,-27.84917376091538,-49.463840907202034,22.762991097112195
0.488,-34.31785154838402,-43.6685586438625,-26.879733913826556,43.88841082853844,-17.69672636114062,-45.5266613374523,23.547133328833624
0.489,-36.263991928114436,-31.75082199647794,-29.626887824951968,40.05260485379524,-16.141581933686133,-46.150083750671364,20.211539122057143
0.49,-27.698166345449323,-26.27012666169552,-21.310291930741755,35.33728559195218,-12.676683991461706,-47.644172739126795,16.20459363564478
0.491,-22.082516181541905,-26.535916666254916,-20.300433108385125,41.066517034695096,-19.679827568043905,-40.357814097871206,15.414075942047205
0.492,-18.07052142473533,-30.03694905236251,-14.160312470410673,39.81942376989951,-5.438341707416999,-45.91094713679627,7.9618854922160445
0.493,-15.208252071120846,-17.896095443664525,-13.686795231361172,23.97510315563212,-26.28591774009417,-33.03203581392487,8.696651311954238
0.494,-18.03990478412482,-14.466630272036788,-11.53606954635708,36.10258657430957,-10.259963050571084,-30.579976730826264,13.966399431047568
0.495,-25.229943623071676,-16.993269272842507,-15.015655163841917,29.747096067573384,-11.099844428476086,-29.151076600590617,6.383237728692292
0.496,-18.025778546284105,-18.344927882752035,-7.0103236591714015,13.753023581169774,-10.806089472092022,-20.738466775130878,11.590033470420407
0.497,-7.654886585993182,-8.898242280524274,3.029004068493621,16.17679233535322,-2.1233962535212028,-13.111548767708356,-0.198226750409785
0.498,-12.744996079875744,-5.775677405974669,-6.492048599691077,15.588799616763836,-7.6042644900302285,-8.480863073745375,1.191778820975587
0.499,4.820023049089536,-3.262576753571659,-15.601702704908195,0.3658161075764541,-6.636678964913147,5.498093675288829,-4.079179101555319
0.5,1.7480700126285937,-3.1448542761016047,6.668686136822113,0.5519963230003861,7.487706342188864,-0.5812883265371507,2.661762389144505
0.501,6.613338198462367,13.107411579886797,5.725476852360806,-1.461557973627126,-1.9686501598322659,4.183957561752201,-2.962149336505064
0.502,1.7637282928828117,3.740901967854739,3.766850408143577,-14.756172004250345,9.510014343963936,13.091039863260544,-4.620185856008521
0.503,16.262355671868267,8.194811907813232,12.494867866437112,-15.212825546318248,0.7785301028105112,15.676895148881032,-0.2912226319915776
0.504,5.225818954554104,16.360167386238437,8.379486923925164,-5.458292465935864,6.314567013056771,29.494217785879783,-5.451179193502122
0.505,16.049743583497897,21.852256418110798,5.665700026043869,-20.01453178407132,10.054126456483138,28.596826731049866,-11.558692322783328
0.506,20.738861866503207,14.753888008576233,15.938084215251891,-28.164622341366584,11.763579573829402,31.723876034589342,-8.863911500424981
0.507,22.626776258777916,25.80018768831049,19.723637359886983,-31.161365516615483,11.704236514113857,30.65725221053976,-23.70480673794749
0.508,21.176138626734616,15.712726934674826,24.390139312436133,-39.2251204384583,9.44977547932417,32.57637281598448,-7.510893698172897
0.509,26.498145996111546,29.127637585880088,9.979181002555853,-34.22246009731409,16.141492165725193,47.1182201041286,-8.204252574178234
0.51,33.38922210997772,40.97573541790061,20.277510488382926,-38.98475308149557,13.944363178134106,43.93848288014339,-12.614107900013394
0.511,36.95145365741394,34.41471795094242,26.33791624318103,-42.353107406932885,18.16955105605948,49.0002470052385,-16.834333462592014
0.512,32.10324464287552,37.24782971376749,20.256481938781768,-41.95788666105586,22.828329140282293,47.92832736144585,-22.67269935939782
0.513,30.11557646901857,39.44414214516899,33.14247855687947,-48.68857387998861,23.237060710120318,52.57066591050085,-22.24761599176716
0.514,37.44160733233644,35.6297617406339,28.769159252142746,-48.27779583726422,23.61034656026269,54.66243485953915,-24.252314886545015
0.515,40.94047039582151,48.95517905590307,33.40099554631711,-50.035906458778165,25.539848149832782,48.38714743375559,-16.166794463188083
0.516,39.799106282390326,50.61036382975988,30.087049238581514,-48.49006871917433,26.339929181389497,46.40561534474513,-23.57089725919778
0.517,32.68340735097731,42.78509101064864,44.39019103100758,-57.055125847993466,23.63708845258958,38.580327371168984,-29.587006872120433
0.518,53.678006901656865,54.10516648814114,41.16827200080631,-49.17118450275588,27.536628017066075,42.56215775214295,-26.418315803534146
0.519,43.612452325917644,48.666674555504976,40.629849447785716,-49.3922901788982,35.141768017026564,38.450822137449165,-30.773501831470526
0.52,42.816968439295096,45.123666510703366,48.157262650580726,-51.141280140911874,33.40124203514417,32.53968797716331,-30.90026047253662
0.521,42.643580925538956,49.52786953304703,42.458280689589486,-46.677156648442015,31.072982170682334,14.442461340177067,-25.655197424607234
0.522,56.675652091899636,51.28738178398649,39.066302208774395,-41.783170472197725,37.879816588637695,24.64980058728193,-32.98462867661133
0.523,42.053099138662034,56.23948865890834,42.798521424837965,-38.25044659115612,42.1359248158321,16.162806782497228,-33.74017319542189
0.524,49.32964627693939,43.13647675138141,52.969619485999374,-30.617327765202845,35.14790987747986,10.326908494505531,-32.448670583506306
0.525,45.12040764972802,43.49611069476655,44.870286844190474,-36.93008253054634,44.533058624603235,2.715384291962293,-33.101827471051905
0.526,46.652663536401874,42.62203282808496,40.64935530284899,-28.20947253435425,41.671339730790244,-6.3316873291947,-42.392332736882665
0.527,45.07846717044987,47.77456591267115,45.714288288542974,-27.301329547447914,38.8052257833654,-21.549178617395313,-34.81776434093972
0.528,40.027085400410286,31.29419507148181,46.13233792949762,-28.178773932663056,33.99958429008011,-12.89787826814986,-36.96048611570645
0.529,48.75238114897313,27.635101883028636,50.8240639548574,-14.155307099131342,39.777308873655045,-18.99472959409011,-41.93084305085992
0.53,52.40303235461873,39.59062053040293,46.533170532388226,-9.854545251692418,45.81908248211862,-33.63382619463981,-39.58921211167061
0.531,47.94669814373621,30.142610969525336,51.7468122634823,-7.890927331469839,47.15763891776004,-32.76542736664715,-35.601677674497424
0.532,47.53587571349017,28.915894795842444,45.15543107771256,2.2191848569696297,41.65763850624782,-42.711464164125225,-42.14413549529487
0.533,37.52287107532633,32.34020786379546,45.5070289639301,-5.8720423296981235,50.78121179910745,-40.19585429777688,-44.264144604032104
0.534,44.07351570818915,18.904328506470915,37.77947534639756,-1.4720487610705977,47.812835142457196,-42.78279253867131,-43.1164205261999
0.535,35.687040369829944,22.85573022837194,41.063112651427886,5.021184461421033,42.63217084883905,-39.30835571970853,-41.58044500543964
0.536,37.80744045499001,19.893173600095874,44.044518145537,6.471248788503786,49.80589078263393,-47.80910220356357,-47.860615867544425
0.537,38.42555205929103,28.98091177210727,46.104139271562914,12.255448172332091,45.75222164332745,-51.08416886306311,-49.67265024061598
0.538,31.459335023083412,10.394428523963148,49.25658957639795,23.034787720920175,52.70264142544702,-61.233824185803265,-55.27714588019357
0.539,30.026501168188886,19.22520385711242,48.84932383341116,10.906431162948303,41.66167711676732,-43.59197596048009,-51.85927560623075
0.54,28.50556198337998,9.517521280979981,52.965585230201896,26.29207918160198,53.98632662866911,-49.39006453304647,-40.93904627564201
0.541,32.34948137623088,0.7384422175287317,37.99952858520874,30.289211273191764,46.981293040228984,-56.15121457811992,-45.00931913645352
0.542,28.456616162568046,1.8135296994352499,36.739598575489055,39.756161644353924,50.66799888981253,-45.487798138954666,-58.57357621838016
0.543,25.464073079052564,5.003901386534921,54.575352049255834,41.292729222542995,57.63289494640446,-33.14487696337248,-55.34086405335854
0.544,7.869476382722086,-8.439514233643441,46.38293287985504,41.91721871081093,50.16337710660887,-35.88838639205791,-45.638309126752766
0.545,15.786317517748126,-8.50237936709545,31.571050076905507,47.527728723747565,43.41932903432838,-23.360283642050007,-45.641213124928626
0.546,18.21077020392637,-17.40979455493465,36.13184972184382,51.501850909541275,45.03334883671805,-27.99451054868457,-41.22420205800263
0.547,8.87727574538262,-20.78873581656591,24.721951133568624,45.09951481491175,51.41562517421604,-21.48382239530128,-48.698666593091815
0.548,1.6836410442797263,-24.312106786122687,30.785282719609548,44.76615678917956,42.60779325509679,-8.086689411084347,-51.321242310407165
0.549,0.7491573279594159,-26.988586402992457,28.680908519269273,56.19921754038026,53.08042875856165,-13.742722924680132,-41.87365756698042
0.55,0.7371035356507826,-29.84086973559304,30.185353842530034,42.59620989346972,55.64834084681865,0.47806374358094117,-42.70034995083108
0.551,-0.41462171214906673,-38.04790177372558,27.419110773033562,50.05147812967311,42.54726057816358,9.504383254889973,-41.95433011635579
0.552,-1.2554813675414307,-35.085319057558195,27.618346500853043,45.053621617395905,46.460059872336195,16.03531631673838,-56.44788210638859
0.553,-13.896928196433217,-31.065808755837416,18.618531563276704,47.61317607899105,35.54647794850088,17.765885820149595,-50.355560256271964
0.554,-10.529946800257793,-30.717529947311313,20.72668621980776,44.16572789091389,44.37493993479152,24.856202938477484,-46.43805801710125
0.555,-19.64474072597433,-44.55741329816429,22.546468249111808,46.75204300576757,38.63041755081049,29.33376538239929,-49.47774867815633
0.556,-8.105600843917442,-46.734427918005444,10.6851751169708,48.510870845177145,47.76835358978087,35.88885078608302,-50.00830655080192
0.557,-24.848696283377947,-41.550106447824014,1.9637056273648739,40.89119090930871,41.43836303298602,38.1167619350196,-49.5611751359701
0.558,-26.153840007704996,-46.58022789925898,15.562267427415131,38.459707920786414,50.24479950644549,37.3128661249386,-53.514006799838505
0.559,-22.98250987430128,-42.71620495249384,8.205835189547194,36.280183293468205,37.90358299475182,46.60092198356427,-41.788764876073486
0.56,-29.925891800784612,-46.774345939716284,0.07605858696466417,31.129536441065135,37.407168655870684,56.31196394088463,-53.01704295940638
0.561,-25.230785925976335,-53.36845853302997,-3.419402168013133,22.053284931178993,33.661604595018055,47.46436014374188,-44.98708793356795
0.562,-36.03878385836021,-53.80913453101055,2.229837901943913,24.933489987614173,38.57113053098118,47.59244970787574,-51.08767018989764
0.563,-42.842934791890244,-49.23853130456885,0.29900573027491406,20.64681842847887,39.63977464309428,52.6125934653446,-45.08647980166551
0.564,-35.20675062266702,-49.58193478294462,-0.804515147466939,14.409678146222328,34.512002836462216,53.01209833855389,-45.57292844942942
0.565,-29.056624023175843,-47.26317458245231,-9.033072907244012,9.313421864066306,29.809655904092757,47.91315010638181,-48.66503490883995
0.566,-40.93439249424457,-51.15990751154712,-4.833662905632828,3.649036445592593,30.149495797402196,34.57838062283474,-43.23238763506118
0.567,-35.58244093172238,-50.495735555141884,-4.35425206598194,1.9475643076304334,33.56821813318716,47.025476993564176,-46.9012359855277
0.568,-45.57613937121985,-43.47636058990135,-6.714365595938396,-13.260055245823192,31.828865487752786,34.750034960055146,-28.007828917881625
0.569,-53.78664431605667,-44.302085719914274,-12.670197676256802,-9.662545757519538,18.963878253256212,42.86223778193426,-40.164736084291754
0.57,-46.35187200965755,-37.678646623377844,-14.508826108059575,-9.9704154284294,20.147248964004042,27.93015364707732,-42.03509878318617
0.571,-39.44113180213553,-29.332675724943737,-20.157128205634244,-19.063850028546792,26.639920719259905,24.48404801108449,-37.99813460619482
0.572,-61.48366222985897,-42.427792327313476,-29.0105333092098,-17.779125974660545,22.205216621650678,22.184270323029814,-34.91161263686504
0.573,-57.108597407729754,-37.40641640198787,-29.2199312088062,-30.393817461153205,30.122763932311024,20.283526756889522,-41.10875873197726
0.574,-49.20650218956807,-32.26357420521537,-28.02748724151415,-35.021652402215835,13.054958281580433,11.45438518556114,-34.526865515612016
0.575,-50.15102364478677,-35.48447627844766,-31.189353528706445,-27.50742583224067,5.3999055189934975,4.902271729799547,-40.87615898999754
0.576,-57.56394745634106,-25.09554240539028,-27.867761102675402,-37.97615617555475,25.3913982564289,-12.648731182936642,-32.145326187173865
0.577,-51.44928078527755,-18.949979427218096,-38.29581720624034,-44.68007723871419,13.442464216076692,-4.106431621374451,-30.486661635956036
0.578,-40.84726522911696,-12.220306577397618,-35.30252268475036,-41.145051927862795,11.567015957161422,-9.442231962488401,-36.64813119584662
0.579,-42.60451237626188,-12.146884001668074,-38.261587797791094,-46.87470051234803,4.152250003647904,-13.221297559885917,-18.965892383624617
0.58,-37.641853196933006,-10.415162677335863,-44.8972721704615,-41.27492972484526,9.238185990772878,-33.671442888100344,-38.260905014660885
0.581,-45.25743072494762,-5.573048807962984,-42.903558043223555,-47.54870865208965,2.167549859206728,-34.64759392336905,-22.07234774028888
0.582,-48.45281883579792,-12.685958776512338,-45.33060160637457,-50.7054719918781,-1.948209913175917,-39.37194565155046,-33.87616772899619
0.583,-44.64161410078189,-3.659706130385138,-42.54011884758555,-48.87361758130941,-7.3631928881791096,-51.48809063108761,-21.43899114623624
0.584,-51.851476291632416,5.7877451867770136,-50.911361470182705,-54.50149303827181,5.772559290046814,-37.40497758111726,-27.60689560574136
0.585,-47.00139468897747,11.895043853449216,-45.53189461285915,-45.904882856439635,-9.447804396773096,-46.40473588045383,-20.532355369372045
0.586,-34.87762557351221,9.969597191348772,-46.28110435069559,-52.10717103976204,-2.6846290495221066,-34.45545766278109,-22.45151290099135
0.587,-42.37019229394396,7.3749256771799345,-39.23349111643197,-42.37367691618987,-10.660784872463028,-42.14967162925293,-14.63635140699689
0.588,-40.883966584531365,24.80651887665189,-46.6992122158181,-47.90354542286862,-10.190466596889097,-46.97899510786548,-12.558379344750136
0.589,-35.38559411521149,23.596266349151904,-43.67934688229525,-36.23942743153294,-19.738027328487483,-46.625660195150886,-12.004432603517877
0.59,-29.56076613147654,27.32243313496435,-47.14142311699784,-42.75586317126074,-23.712651390071926,-36.54513663484154,-15.151790362270903
0.591,-26.31286299134065,30.58990877387095,-59.962895866254485,-34.91360808011003,-7.800082153570619,-50.5052815842227,-9.353828140955505
0.592,-27.36707066305117,21.556773931303177,-49.1491199995604,-36.11238805889956,-12.62216061861391,-41.65494394945368,-20.877504256695083
0.593,-24.539374162399728,31.09414800714441,-56.1744471375817,-33.0022968392483,-19.101802498283885,-30.01121317751045,-1.659110889701335
0.594,-15.179706413210422,41.21138243780253,-46.937996220304996,-28.329978812005002,-24.07837414386931,-24.40083650529513,-2.896547482128277
0.595,-13.153823620462763,43.44676402410271,-54.63400643125108,-26.14430410970191,-17.84908013755087,-37.537814792072886,-6.128509779035205
0.596,-12.108786480791403,43.33469660851085,-46.59896427115729,-20.56135479206185,-23.644784144693563,-26.48544951987737,-7.55033940304561
0.597,-7.141347918300166,44.83240194998612,-49.07663464336812,-14.627773496688139,-40.28081647404163,-19.482980831527996,-12.782570117884726
0.598,-9.53838847332483,45.072070035793224,-46.800764850226145,-13.590416532835093,-31.340202073504045,-11.966087688941306,-5.397196191294448
0.599,-2.2686744097181233,51.30784938598472,-51.69676647296128,-9.34774512633416,-23.127651106930074,-9.927706093935601,-8.403698026958692
0.6,-4.050012499346844,52.22454042907122,-42.23729527695663,10.393780982648607,-32.14513916668946,0.8451378734243253,-2.4095363063334405
0.601,-5.473137192654425,51.44218838420645,-45.078178787382974,6.195720856679505,-27.137340641748462,0.6955549432436126,3.723069465067809
0.602,7.305371962857269,57.652317760374196,-35.38667088267953,8.563075791088716,-34.37685385459795,20.754175710082677,8.530966646493654
0.603,10.390916876699826,54.60808398292656,-52.120845422833156,17.4086175091305,-28.031799297731563,15.033466322483568,7.849795193355224
0.604,4.269174557166398,54.275960681814134,-41.790508554330835,4.774914385087079,-18.316128265761417,17.70538133735962,15.408010048089555
0.605,15.055995982242916,42.18357599566029,-51.48692303926774,20.33099318038832,-43.06066168826021,27.334943856623966,11.399485189707853
0.606,22.77188463944032,54.55562451522758,-41.86932692772453,30.037189001883576,-40.12914527103912,33.10366185980522,7.283031898136732
0.607,19.390251717958183,47.61034555956367,-44.709380521965656,30.270437474489913,-38.94868207998797,37.60855791559209,11.71939629700544
0.608,18.569511446308052,43.01883778202032,-36.64519936940894,35.05732087970136,-44.05301091519867,49.032175273394785,3.6789001473436738
0.609,17.0783888919143,47.940118121371356,-39.701290158689254,43.36151246250496,-33.76479238102483,44.70459963546372,13.986027484830926
0.61,24.22044992681133,49.26894663991855,-28.93379683157972,34.61131265635515,-41.28558013631437,48.45746507516576,19.28103232848219
0.611,23.561823341899412,42.964565493327065,-41.142611440323115,37.23461775990775,-44.516994579090515,39.92205840816377,13.168572339362175
0.612,35.552831710771166,47.6624001442061,-31.999750548583446,44.49325037427509,-46.34401213545367,52.277733616838525,16.276894742562607
0.613,39.53925076223948,43.84668473097666,-20.544847297381033,54.27130400836323,-32.37932244484752,54.18485572737953,26.21661468750121
0.614,36.9153855155362,36.68405634133359,-23.615777333187886,50.82787028079176,-45.154882197938925,54.574814682930814,20.68558816862817
0.615,32.464736960300904,28.68547706913919,-30.186956239444637,44.85924812201907,-45.25134162740307,45.86066379679833,22.22288465462518
0.616,48.82241636608058,25.300113908797762,-8.13269884312572,52.41683243014688,-45.45031974627301,43.73135873250388,28.325289653206884
0.617,49.34410967629509,29.207513033085394,-16.95408043528701,45.77485306912182,-49.30980542004799,43.652181360960476,21.474581331673406
0.618,48.85354657787067,27.122512200045612,-18.33623960766675,57.96992258079879,-50.270839719079646,52.200123838883805,27.386118768855898
0.619,42.81240779952783,17.50288339743564,-13.965687718265773,54.553351117201785,-50.72742341398334,44.100880094298425,29.931466670255617
0.62,55.430038933249655,14.782525711200421,-4.841538701732279,41.34403485706042,-58.17745439499757,32.86767712435406,42.1505899782401
0.621,53.030544297559565,7.072057747075788,-21.101592912205668,46.089481379011644,-41.973531748690704,26.30490754244769,43.348195156435764
0.622,45.20902929863315,17.527635982718394,-9.916689530540939,39.8081449392048,-47.05897771382829,13.216530556591142,36.505309183137015
0.623,51.25290457408639,13.357129317368358,2.464518631979888,47.69659377698991,-59.523566014254236,9.523232590279253,36.5163417828931
0.624,46.76942295337303,-1.9932345451254316,-6.454488587492122,35.43623925338616,-47.66156128915973,4.429572537910165,37.03084502468319
0.625,51.076433319294516,-1.0018227779806517,-2.450742811317564,28.589267721373915,-45.003298318122354,2.480264314877774,37.06818306558277
0.626,54.78655965221619,6.989008234857017,-3.55248996774137,34.68418291592187,-52.91149483134087,5.063970108214714,32.97644693493717
0.627,43.71343872369437,-15.026809935444753,9.872245322515226,29.246807120557534,-48.62655256721887,-13.756224285111726,37.55380601726257
0.628,48.8766253358979,-6.778365073671307,8.200555260649294,21.465348912701735,-43.08187051341336,-22.259655436401026,42.501808502538275
0.629,41.46590037868908,-19.17530142706861,14.338833082559379,24.29357202105915,-53.36783654124012,-26.034925873422775,48.85648635004331
0.63,33.86210039144968,-20.610597567002827,12.197387233442745,19.19576856128256,-49.63552170274599,-31.252523046782766,32.49458975637886
0.631,44.731149108768605,-23.90528260832962,22.70641403903826,9.155240350054388,-52.65802571337076,-33.39017275300795,37.915899596610465
0.632,39.076782769025236,-29.361012100364654,14.847149815167736,10.139915611495645,-52.86209201614262,-32.93960920080003,37.878165160833014
0.633,42.291441433715725,-29.476145841687718,14.16268584267539,2.4842073685617048,-52.37728085141272,-32.05550854809533,43.03564257156078
0.634,39.60156795427083,-26.549412409738494,35.75812662266327,-9.876601782147064,-44.544989086111826,-52.17004037020172,33.903778582732045
0.635,46.91238569288356,-34.240546698417354,15.373544100907354,-0.7264592142434871,-47.80145459711067,-43.66755484857801,44.661072754126266
0.636,33.57952878591948,-36.11768376111112,30.57019321374984,-13.414479023978194,-43.81234960767848,-47.518994750527774,44.874115963354605
0.637,36.24820822158058,-45.81094532940253,27.825947221318,-23.416221642532395,-36.241360979533326,-46.44521002198474,44.567270890242256
0.638,35.3584885917769,-36.732122152230666,27.47397802181159,-34.67172236650866,-42.98799505589426,-55.28153007006097,51.92477078969691
0.639,30.553089614325906,-39.928255474217856,30.783503950271673,-20.45595818908264,-39.717927891698686,-50.053380882889186,51.022115843440844
0.64,28.74516240513012,-38.42593716426149,38.24910571673462,-23.949220026734956,-44.76754150404988,-44.04275147036263,45.64742400699712
0.641,14.80559810225416,-43.412406157250814,34.90334352956618,-42.43832374708942,-43.26117995240101,-45.936548274875165,61.23355787110092
0.642,21.1704297049514,-41.47212710688043,31.846294270563014,-45.264639648600685,-35.477071859390335,-42.19018614695436,37.249413016714165
0.643,17.481163505066316,-48.26861819975957,38.046336702805235,-44.49100628867934,-46.049203821230094,-41.66818381861443,45.57368746841709
0.644,15.279854915981893,-52.39179666827111,48.94359185136978,-53.55060739150802,-32.03147245672883,-26.107144301135328,52.35405092315182
0.645,14.088885376473835,-44.20146052832127,38.02292407710485,-41.39965800343211,-40.70844227291761,-31.540879188240883,51.26155275230715
0.646,8.518086192414913,-46.56117068593913,36.23355719930859,-52.40299839233809,-34.523049349024554,-35.31104414623991,43.77060344604274
0.647,11.841317378508414,-47.45077865673102,54.77829589611048,-50.09928509542738,-31.262228882691822,-18.107955673586925,49.6236086991337
0.648,11.368289174302813,-47.47107051504036,47.51734401177141,-42.69145206768991,-31.073080278151437,-19.17744928156351,47.36562487381153
0.649,4.022206441122626,-54.152724414891004,50.407968617686784,-40.44214006843717,-32.28438313890538,-4.316232548841477,51.829024334100694
0.65,3.410326350022983,-33.27550094641827,47.71883859215199,-56.29925039592761,-31.425005925340653,0.9809201126210925,58.67534215297171
0.651,-7.2163921562433355,-37.776640282442024,55.869355954843726,-47.68653419012773,-19.98038787923811,10.855061202077318,48.62247414250364
0.652,-7.870946438752828,-46.026232776076625,52.06454020255651,-42.65812649979148,-16.307369355488095,5.48180164482468,41.87027035069333
0.653,-7.133534524194783,-38.1559246689952,53.91905594990933,-42.742509060397865,-29.22984297752808,15.381515178134315,44.2866894590931
0.654,-11.836112013464234,-40.760448672896345,47.54579375651847,-52.005252095788045,-22.46099823293458,19.51019953382586,53.7079915999688
0.655,-19.328617843198312,-40.97165477635301,52.66959505431062,-47.92047729666156,-24.657841296349133,25.466770844990094,51.519016521410826
0.656,-9.618622818494277,-41.8546208916826,45.15336403804974,-37.75735406943875,-18.45372936555243,38.68506055322097,42.11947635650598
0.657,-21.045123207900797,-31.492461361552742,47.444817581524056,-30.383873830111384,-23.090221922702234,39.4467643713937,54.477548253303034
0.658,-15.389893799496733,-28.972920522332085,54.96875355597367,-32.809333446333696,-15.918742073285069,44.54569585423538,47.65712980813993
0.659,-32.096471784277945,-27.39643254025621,59.86693332195705,-38.23953611687639,-18.594357931016766,27.14473572803041,49.03803910813319
0.66,-29.51155501232263,-21.581580805556435,51.22237427208529,-27.14892334345901,-6.7184323063052425,52.53880512574448,45.95401967169612
0.661,-23.539493365791387,-22.58230027056103,40.46401101550549,-32.19012562221998,-0.7847445089502809,46.07893835771383,55.63114495174087
0.662,-38.95846624902182,-19.443865303444266,52.85790950637795,-16.989279228791155,-3.3181670059140824,55.73188102760834,48.67529801568843
0.663,-31.4257722221206,-17.842093890530478,45.51230700625891,-16.685330285681218,-6.850513869879771,63.18006590304984,45.595144647547855
0.664,-38.053905470995225,-15.60683478015693,44.635676078021554,-20.67098892724637,-5.662300479654567,41.53843799435161,54.2297044685468
0.665,-38.22068446313318,-6.873114928192352,39.67883460244447,-13.186571042604296,-3.2209240905717236,43.00319897713003,47.55475203362763
0.666,-36.747513311489065,-3.596615814528515,46.66297024983298,-8.039793047001028,2.435787951035062,43.46229231016819,51.22948302736637
0.667,-55.66976058859406,-2.596657756183587,36.635975903500544,4.24203400255915,1.0787667664923557,34.708505872811465,44.53059355187159
0.668,-41.866027887598136,-1.4033935003789635,44.70331092517014,0.7388333102003166,6.0990038434556455,42.093896210081546,40.95991432735739
0.669,-49.690301132234396,8.438485017078067,51.49912905363926,12.460775446381701,4.163507398149625,31.02993903453596,45.22936880227698
0.67,-55.378460485694696,17.92517400461132,36.15286167176873,23.4267679033587,-0.01450573942621336,38.57876882400179,42.73759954984037
0.671,-44.57507387054292,13.87467851479505,34.70096714368882,17.625816269224263,10.573329317299532,23.790151806239834,34.92426175411224
0.672,-45.50338377944491,28.35589061296752,35.60528102613192,25.583241125512423,-1.802105833085962,23.547190111418672,40.214966597575945
0.673,-52.8419984518044,22.810002435805764,50.55216080615011,25.925716979312746,15.917917750942884,21.016878644031646,42.158449018838965
0.674,-58.36207408002997,19.07556981348838,29.24093143301117,23.511741686074178,19.022720352647504,13.476790782686027,44.16720931492079
0.675,-53.117352554374385,31.215743328137723,24.669028663043296,31.00078427901175,14.089833594968725,-6.803697476065697,35.20588399773563
0.676,-44.5536467386105,34.915211890645004,25.852169167632503,35.12958191791301,20.959132734772766,-2.9341453732373513,34.031076211683924
0.677,-54.22673361827525,30.489962572200387,22.333198662849075,33.13529208701395,7.373428970849869,-6.722331511910356,40.92550494482454
0.678,-53.85822534890286,44.23044816046076,26.322786215731675,44.53936640547434,24.99426103972963,-15.336565791910136,32.12043681803253
0.679,-50.24392843464243,48.57256903338377,18.146026044364053,44.84530411962421,26.473671807289463,-9.643032652324674,35.87770492347925
0.68,-46.29894100359165,42.19386785613165,25.69307321431137,56.434511976017085,35.28865310776945,-32.37170086298584,27.373264753328243
0.681,-46.29812338394169,46.73461435769993,13.185396864034939,52.86710858961307,20.149478147562903,-34.07131220630213,34.61464806008925
0.682,-50.80853171178056,51.311557508872376,10.516236679777897,57.48345405557126,28.480044069362393,-37.7581150701916,25.50175475210815
0.683,-38.70686349960041,44.04346516624708,5.7625173335848086,53.348506894687524,31.922922577918772,-44.529669155009586,28.437620782583885
0.684,-42.20029206844878,50.05841672478306,6.30384364590717,49.12048635674712,31.49829130833864,-48.72873826369039,28.76584479497921
0.685,-41.116846917955996,43.007507764159826,-9.245116318045715,51.92514855261006,40.002369052157704,-39.802893325349544,22.97780764621819
0.686,-33.45504996320847,55.327920468242006,3.3407763743529677,47.04501225048137,29.919785315459873,-52.10984152663911,20.52010825706251
0.687,-40.35338475290888,41.0142272473115,-3.246851607457423,40.93908590858401,36.44902599518183,-46.67722131777097,25.880894722740994
0.688,-29.14660394358053,47.446843937740674,3.9285740776629687,44.801033426435524,46.852179495860575,-53.668205312596555,21.163414184986202
0.689,-37.157995790108096,46.65548361724801,-6.77770296848662,42.67889000454667,42.23684397413046,-41.95456069081462,16.854302637062325
0.69,-27.820523810022436,47.86835826099863,-7.405885306209679,44.00453963543395,43.03638364807434,-53.3650343346224,19.636606821488908
0.691,-35.32452869028496,43.91907261578578,0.5654798064681472,30.581139997092226,38.30619422165213,-49.536772548488415,18.73927852138834
0.692,-23.935720243819585,53.50225463254246,-15.491898153288655,25.86621703470115,37.9909077041525,-38.77057857410964,17.39852425728548
0.693,-19.484374115629006,43.43937357984762,-11.652021896258823,40.00533439019257,34.953349674929456,-34.06931765108634,-0.33336834207968735
0.694,-15.44036380068272,46.27157424630336,-11.388077745279226,26.21412125767538,54.32130714583404,-39.32231875711526,8.912051103625007
0.695,-11.209131592838599,48.092501018031484,-19.468974746434665,27.977823102704434,42.33191787497631,-26.42786092916041,12.99589202879799
0.696,-8.278689130106349,37.832159189087434,-17.68271894594373,10.10479959415181,48.2483301473025,-20.486731709925728,8.85043516312446
0.697,-11.31635414045012,40.38160588930196,-20.196530639369062,20.40335247831632,49.86664452280084,-15.096309202975103,10.336333318934955
0.698,-11.154942120509002,32.706268327422585,-17.347634853798578,15.560640304079143,48.546634461948265,-11.853040728015454,4.136894844231792
0.699,-0.25878432942282226,29.172710148234906,-15.496954673004147,-0.772561491538271,47.556227723087304,0.9189985112933217,-5.838339142064411
0.7,7.734159937505669,17.791336083727302,-27.89556212500632,0.06279336752494712,44.52716905653051,-1.4982945156178347,-2.71513749836025
0.701,2.90284552996004,31.405998901327415,-34.530703562133965,-11.757320342661487,43.39926717247045,-2.597383101133735,-2.6471842480629837
0.702,5.99180162668376,20.865773846083876,-30.821935354298734,-6.633316611939459,42.33289797105735,10.685809076252987,-0.3759708628109091
0.703,0.6029164622165801,17.633263562922114,-40.25464538646036,-21.148288078032795,44.954136054352965,15.554615387865876,-10.102780887951216
0.704,11.63820933994327,12.7743801140788,-36.28584226267437,-8.906643423405287,52.19454879528316,20.562023820605027,-6.954771143224974
0.705,12.404676625329964,7.358671237263688,-37.393656796056234,-19.863386130697574,55.34080943332755,33.33757274399549,-1.1508387213193725
0.706,20.60589786566217,16.074519248519785,-42.6336875392942,-25.45604938266168,56.53866179838446,37.38347882143535,-5.7018942344831665
0.707,22.095894690589347,6.342102882968686,-38.251951467489924,-30.139253567038732,47.77178536659834,31.61014958300088,-8.272663998399004
0.708,12.437521084248047,1.0989947130256303,-40.37000398872607,-36.48730576681652,50.19139370701507,50.32338017132702,-4.0050707805768795
0.709,22.482384893282003,-4.268844808464891,-32.560241110768,-33.52827532659533,51.04621982491534,33.244178956520365,-18.413257264075042
0.71,31.462920931728842,1.8519081111340414,-49.079945959516984,-32.203304660672586,44.35347846654824,44.80450054278059,-15.442550135498756
0.711,32.04471764898596,-14.648298556035169,-40.26755157210153,-44.779477088840615,52.11622446915216,43.904177759423405,-15.435451841380795
0.712,34.08792534711801,-16.88277674175041,-45.238020420110594,-37.46436689135753,48.51708281955616,52.48259631793279,-16.179226823759606
0.713,42.468770137741664,-12.447498229159011,-40.89492465609604,-44.35433996478841,55.00768339880913,42.860454110702335,-21.80692158780498
0.714,38.65861753556994,-21.203403545264575,-52.20478806112412,-53.03048739764431,49.89666193033739,54.264422019944185,-22.017187913347513
0.715,37.07539044223161,-20.988465377888495,-47.60276664969002,-49.913186576796875,51.95987720277185,38.48719559483871,-25.023059124011013
0.716,42.229592933556084,-24.0528978110093,-39.8584157983827,-47.48820130219099,46.8922456314757,42.14000125582478,-25.741185798243166
0.717,41.50450707029844,-29.450592225189073,-51.54509123668622,-49.57607840415463,45.16495461033299,44.52530199810858,-28.2481804872448
0.718,40.55875991956662,-30.884944604511706,-52.472967595845084,-50.80720733910184,47.37416801365432,38.94884909193411,-30.077841413084457
0.719,47.473551319175236,-31.66495549978249,-53.93632121887395,-46.93448525484368,44.16845146288998,27.561275906823802,-30.48040174722076
0.72,49.497230828546876,-30.3293034348652,-47.02190264574406,-41.34949262775988,54.845192912631575,28.17187888269164,-26.050574935234096
0.721,47.44640055099001,-45.29569481464915,-46.661188217690096,-53.526643803575816,49.71387435794745,30.515588931279083,-25.97072720188099
0.722,48.31112608654966,-46.002910754312026,-46.956833001622705,-38.56489363747279,40.127631817592494,18.526542550273607,-28.420355415281477
0.723,50.18374694664918,-46.07663552161843,-46.61985286217965,-34.78805285714899,46.50072810920428,8.416883778509927,-33.53019156670497
0.724,47.24322963899962,-49.08147015877757,-36.13522115401812,-34.173741437453835,40.82777183959886,10.679365317166802,-36.59402636464492
0.725,46.11515062585416,-42.84957230599185,-53.12134353685471,-46.39550395653039,51.82607263019562,-0.7323583719153406,-42.4054671803292
0.726,50.47581057131495,-47.04929907837339,-47.79015130703495,-30.85132861977651,31.58635799340278,-11.590054287130513,-33.225142041556
0.727,53.605873472904506,-40.104304322547534,-46.16368707978398,-25.916043194179615,38.48674156602337,-10.410058142024658,-37.5465353304112
0.728,50.617675951646746,-52.6359671117464,-45.612405424468534,-26.886654237540363,42.33451847057428,-19.12099746715129,-36.8501816028228
0.729,49.56879050576569,-59.067705466788084,-44.87763713731275,-27.19058570426759,36.40330295987352,-26.997621770610312,-42.187060929884225
0.73,44.19524199369198,-44.742019987506794,-46.87501003146998,-24.622246487011466,33.56433334983881,-20.078554978115324,-40.983081398464584
0.731,42.27331240252139,-56.58566476654848,-32.81622370702669,-12.398127112350354,34.618935801975,-39.81732907218209,-35.1874350537944
0.732,41.82813163014144,-44.71607616596818,-39.93459086424704,-4.678623456748291,30.575367103752853,-32.949211891579736,-42.405159392178895
0.733,49.80011007893695,-41.83010494301315,-37.26168071643018,4.365254261999561,30.21382963310344,-40.365154396086076,-52.01525628815938
0.734,46.902500274153255,-52.428884138102966,-32.63675694730181,1.9991435024424922,21.137381786607833,-45.836946162784976,-41.594594023348876
0.735,40.63953240734988,-55.262532827062074,-32.61030585395877,1.6173195519844095,25.859061968491297,-45.04196952634678,-44.835285593451935
0.736,37.33849951753619,-46.939367324605094,-26.989369746513386,23.321227263370634,24.147227205107797,-51.4527998413855,-43.90000067249275
0.737,36.10835879445256,-43.889166214166295,-29.756979521601142,13.123643045329995,26.47328312252291,-51.995259888635836,-47.13243375707403
0.738,42.85852310769399,-45.54013834245881,-24.919773821198138,17.042488098694115,29.12518716385572,-54.92006010563922,-45.16917287666183
0.739,19.987680578640514,-31.188168063256192,-25.121260697727283,29.334965173108518,22.067482075217082,-52.570115451009464,-45.69317964669064
0.74,27.263214046501947,-34.09809264778056,-32.873125127767075,18.42030220034494,19.8014121688236,-43.36732792499744,-36.99905907464574
0.741,28.17448582585314,-22.087630228872417,-20.246355314514354,33.872886058278425,14.301459493209121,-42.66011173785698,-48.29421124326077
0.742,23.082117315599675,-25.619299106001748,-24.905291537645503,39.18867743371704,11.114581488043843,-38.54381841924597,-39.068029143191815
0.743,30.718407018262315,-15.650891236232763,-15.161752171615355,37.28528500533811,18.141065075481944,-28.244139083719634,-42.61995789463769
0.744,20.682012947318547,-15.27883194546298,-14.139949340919548,46.591740010152414,12.398795179066473,-38.535751862794,-44.871029870191016
0.745,6.356155494217365,-10.875360843005275,-16.29548061489411,45.77621909203932,10.058195877606975,-31.86781971727133,-44.74146323360328
0.746,14.787668270469757,-19.355902047516086,-10.513869736190003,43.27593621763475,11.261688100484005,-20.282742877141686,-46.2708316474066
0.747,14.49201736432491,-7.738816224663561,-13.625868361756648,46.03303892376537,-1.492949012756621,-24.302059254220325,-42.68265065564884
0.748,1.0357726950976094,-5.804716576800705,-5.632658435406163,55.21732810274287,-2.2447803160880238,-14.338623247311645,-51.501229465028814
0.749,6.243360525257395,-8.772438242747544,1.4237929821456117,49.46412027931519,1.276372379571662,-9.803182722780836,-47.82592071476823
0.75,-6.173654014168357,2.148811465144653,4.711394230460694,51.99928951029404,0.16982357489799327,4.333089241154725,-53.182576183651285
0.751,-1.5389524868897293,9.400285883406504,-5.5686905038022,52.92314276387901,-6.441281168703689,-0.6504197571086765,-38.77299644229841
0.752,-4.438711288845844,3.20236502363257,12.627988901878636,42.96619895808691,4.2935477293179805,14.93522855505605,-51.54885889021062
0.753,-13.908745827429392,13.327052983342405,12.120161105831752,52.671606517141065,-2.7633465319483697,18.889564372104914,-55.282281636389065
0.754,-17.402925001172278,14.83119186300257,15.634044055724619,53.68648420951031,-7.022891574356546,15.709718393106245,-49.565201541936396
0.755,-16.994336163404327,25.741981828110877,5.426458755697125,50.614017629651116,-16.268052926007186,18.330423525821292,-46.7571571456082
0.756,-20.11325199199841,24.429165370557712,7.077715433016427,48.573036010066005,-15.27808448385079,28.34867191052596,-52.11400969328783
0.757,-23.332309855058774,21.62216030175555,17.320475184517626,39.21782154934269,-16.475962499893132,42.47811820952983,-49.030622379303146
0.758,-18.774448226646854,21.235280103666565,19.332646794480876,36.870497243733354,-13.583947640775895,39.53216835671657,-49.579371707646146
0.759,-31.08568086973998,32.16212767031491,28.43796988735025,27.863240219821,-10.695638903428698,44.97794686020896,-44.23726833081645
0.76,-26.844029189453643,27.877898928832174,22.258991212000165,28.04123192179013,-31.348818945052706,49.4593767664784,-59.328691217516166
0.761,-31.82573497618017,38.78969397805427,23.239347098733447,32.0670384307815,-27.86626944326412,51.35509104433268,-37.03223618839224
0.762,-39.11085760779102,43.517341885419306,35.59516926185627,8.757135238113076,-24.24306813987389,42.98601935422879,-43.26086104828984
0.763,-31.864768124504874,37.848121876931934,36.88716748232678,17.749436760702476,-24.216150627945453,51.28665112907364,-51.54404951230903
0.764,-31.288105879989885,46.92852249663781,32.28448631162529,17.589228386880468,-26.081644626196614,52.64344646252288,-47.933207009729195
0.765,-44.510736453412484,43.335306563964615,36.27285561262927,9.558677711629183,-17.192044188571074,51.62591830390398,-52.3483839727612
0.766,-37.65614817278254,51.25555551851226,35.82958627718161,2.422500127752301,-32.368552308342394,40.37626472606156,-45.99160990704943
0.767,-52.741259008778115,42.28766195742656,35.58823816867117,2.650929490350755,-36.3951984879867,47.81273970054774,-43.02094553118999
0.768,-41.74653403596734,47.25292748316278,25.662130297699466,-13.479035670633078,-36.4083779274829,30.626451199672374,-40.77348227073048
0.769,-49.4490192708655,57.731179990460014,41.66817682745274,-9.786845499030466,-33.191978483986816,33.40051765398328,-42.933596180928454
0.77,-46.84994047364792,52.26987908789343,41.794739830501996,-16.119593706388024,-32.67909658132745,27.965977558737833,-42.94286314362542
0.771,-42.07373656328057,55.816694210747805,46.71432527860752,-21.769619409417263,-37.17641870314767,22.879476080144872,-36.55918784254287
0.772,-52.614196858366384,54.19387963237932,41.22424313140978,-25.770712219856907,-31.602044332245853,22.9104919275836,-32.16569234454395
0.773,-50.15822808881643,61.20627965641705,45.08587487728794,-28.245140639046937,-33.07557802658771,10.031319242693103,-27.6831803920204
0.774,-42.30028808830674,47.70191520556559,45.43182287057178,-34.67519491280467,-37.551614640210545,-2.9883405106174328,-42.564117982025664
0.775,-44.11945085437491,39.91395189676186,57.50407501467085,-29.836016667180246,-42.9978864966523,4.417522360407737,-38.02035032519614
0.776,-53.78587045998941,42.214965710721756,41.53465114829941,-36.32565324160645,-39.37747625483116,-8.765734105719353,-33.06532436907538
0.777,-51.614736775503054,43.372713921682454,57.08550922696724,-48.41587637603166,-36.60887233049689,-16.440044725859522,-24.66679654357626
0.778,-46.678034038668464,42.787202653642936,42.131637080626426,-41.95000498248171,-32.5880506110981,-23.448177349334017,-29.54494075386673
0.779,-38.471026165683256,39.85072119867101,53.90659142263145,-50.99184844753697,-49.709539000011404,-24.691021700768815,-29.93698435937555
0.78,-44.694215560243855,40.728460513774465,47.27591621787682,-44.21194208491864,-40.52958419840612,-34.566463300360326,-24.89542547485978
0.781,-40.49733228711989,30.412065640382707,41.66507751001454,-54.61853378628883,-38.369169254195846,-25.59620838091357,-28.684451717880375
0.782,-39.29154030837006,39.92510452579885,49.88208806701016,-52.414711638257614,-37.94760745878903,-44.60202690717296,-29.099441815895734
0.783,-48.55873919526019,30.880717248420357,47.89412866450257,-57.577283383675805,-35.630810841600706,-41.395863501179534,-27.822181772465367
0.784,-38.6559240234438,33.11812425819628,53.294511310865374,-50.39426619790532,-46.96557953425701,-35.26815644579657,-24.525707387746948
0.785,-40.30508613816285,29.04460404650764,45.30515201956688,-53.7604645396879,-53.01733296692861,-47.03417164087104,-14.654821054820433
0.786,-36.708446659132946,27.053005437448654,47.13916653555829,-52.992910539107314,-44.980670530966336,-46.634948813566204,-15.645512319129374
0.787,-33.881619576346324,14.438151853346731,47.49817340929228,-40.922567399767814,-53.5287109433677,-57.10151073110495,-25.713035806269893
0.788,-30.870545227262653,13.411275460574121,36.32227525358206,-48.81790012058853,-44.88840358522664,-46.60064754683995,-15.79035976327539
0.789,-32.88685249153474,18.352903440258608,47.38834078372364,-42.88599026141659,-60.72027831874266,-42.67408120065112,-8.552330151930452
0.79,-27.28214595348351,6.030710388696571,44.78650828758478,-46.455512124397714,-53.77147052388597,-49.392710363129915,-17.73289710420177
0.791,-26.296647332024182,6.855401878936392,34.42177475303519,-36.70591785190059,-52.27767761675247,-46.57742846204312,-9.618141285521142
0.792,-19.42282480191511,-8.385701828878446,33.63191230312104,-39.81594410397361,-54.13433980071023,-37.96663661101506,-17.090708194513304
0.793,-14.187345373827277,7.374355021482989,34.66019444964225,-28.579264461325913,-51.23040303100227,-36.10168142496174,-2.760161689430788
0.794,-20.054089693135005,-16.649737808664465,40.70991315746891,-37.23347695603076,-53.001987787917805,-34.320349850924906,-13.578892013713517
0.795,-18.249564604386112,-14.71647938182932,36.0945501651933,-24.420700399646588,-57.37172009266281,-39.649187343903876,-14.474089907299827
0.796,-10.826027408952262,-8.875669037823918,33.91328407637296,-13.240307507129872,-55.7556689472645,-31.61232936607119,-15.434193870480197
0.797,-4.574507370987254,-12.578124322397274,34.41490683956354,-20.542663822158453,-50.064491767799794,-11.703950559221687,-15.638997274317202
0.798,-2.225761990481468,-20.870978381710067,32.8212674859027,-11.261669322206615,-44.834028729898286,-4.3578391899154365,-6.28603880964666
0.799,4.861110684807277,-25.724801239768745,30.336297997531553,-3.5306830648030676,-47.859323136721244,-15.572937017256827,-9.553217992219857
0.8,3.795826872860987,-30.399956573245838,27.4875763474601,6.19840772585734,-39.201968281704055,-3.0091779288643683,-3.2517994329591025
0.801,4.027868280186016,-29.23104011022477,25.337751677072518,7.474311297804475,-47.039730303126625,3.460946638002227,11.045550692295587
0.802,8.6597925333168,-32.55018369517363,27.802450907868607,2.1527823301705427,-50.98303160859069,15.914254425987917,3.4245991324453944
0.803,7.986489697100234,-33.10247232436856,15.397663212731787,23.98390935924786,-44.98919809999119,25.731117477124783,11.527318719070736
0.804,12.746825461148772,-35.40747627677866,21.697076256400017,17.153947715882254,-41.80788979843354,22.265021968618615,12.278882627371143
0.805,20.586419963739903,-44.194427123511126,7.350881076428454,13.318969717824956,-48.68090358625559,27.744074361019212,-6.5933802815719975
0.806,16.63782518604063,-39.377547041427945,17.283543116819704,24.746242976049146,-42.576428948197375,36.23699929892234,11.662906787610893
0.807,22.822292593934762,-48.537578017642346,17.337788477665114,26.858611802257773,-55.06225877323391,39.01416946098261,10.444447495845347
0.808,21.875617670840818,-39.24969680103818,14.434097952796595,32.90443187440945,-34.27617482652755,48.418888860137024,1.8952517111066083
0.809,24.850798960659937,-49.807065223447346,16.87757100879574,44.12993569399088,-45.62700619458601,47.928329847413934,11.40757668656768
0.81,25.7065788986293,-55.02201455093069,-2.297320311372804,34.19529546906852,-33.710745221531056,56.83044464370107,11.826746753009598
0.811,33.77983926132375,-50.03491815821138,8.600766870919859,53.06778451518124,-40.785595352651875,51.61375466462582,12.66627843982808
0.812,37.77951730175676,-44.22197792293269,-1.9802343783452887,44.87565435597631,-38.64275789273727,44.97372605561458,9.129444676427346
0.813,36.452268525634544,-52.676645507256815,-10.144119457516924,53.18977054692189,-38.7927690806653,47.00556868590137,22.92918626176451
0.814,33.21685074094064,-40.45141498450256,-5.26990174079772,52.81007235215308,-37.777625015476104,49.20936331189391,27.402442153440976
0.815,43.3278602272102,-48.54462705506138,-11.007934846425668,44.6354111641706,-36.66896635739427,41.20093374890699,24.0459133184918
0.816,45.10886554675918,-44.287549048904566,-11.102005671352561,51.01293182972247,-32.04672566182208,42.41330543146329,26.964248644502504
0.817,45.66405014339316,-47.54640186469093,-5.308480682778508,55.020631779042795,-30.21445918090405,40.86538863456244,41.534547454907
0.818,44.42230508992072,-49.251051479148906,-21.540495546491908,41.74901188542182,-32.241961923301474,43.05743527919106,22.704397047751232
0.819,49.4138414723627,-42.85823327215593,-21.09264169434985,46.83221964727877,-24.513146374698763,37.76269239512788,24.653570223081314
0.82,48.61015807449606,-44.943880746747475,-16.951606052332625,48.02568932279904,-31.82429642788346,30.528293695492835,39.81335653766928
0.821,45.122340933548365,-45.48937427520956,-19.702702013995168,47.553193746955685,-28.490518031328662,28.78926919563483,23.739775568126237
0.822,52.52391368940735,-39.61722346373507,-19.165057424740194,45.612859989260244,-25.166265604110208,17.094182238034918,34.23190002043382
0.823,47.49550646441218,-40.61307038251913,-33.99870999935759,39.127285148312424,-24.635647484376687,16.261463578160477,29.821176099608476
0.824,44.294642325066846,-37.72775718417285,-30.280027905056368,32.342109758736385,-12.058840926750298,4.648031547644582,39.950083200318915
0.825,41.12907188133361,-30.721644449740026,-23.980783048505437,30.442712037868247,-12.090411538047912,-4.8880072220750215,39.17062593413675
0.826,41.08734080911793,-23.557232899792165,-28.313773908469617,40.075493262937236,-15.562013373797528,-1.7892967715514345,32.41012595141334
0.827,47.045456080580884,-29.123512156972645,-31.84356831056043,30.004953206592575,-13.968063554962939,-9.408397817863419,31.26918951613346
0.828,50.501930655086234,-19.77938648277332,-42.45506924136636,30.681854643586497,-7.289029679855291,-13.132758486098027,35.813217290956224
0.829,52.896012931807824,-17.824427507257198,-35.72146270907599,13.791249223658248,-16.941545405954024,-26.456759168024803,40.65928864178434
0.83,39.73957697139003,-7.098697782352012,-37.672092597956535,16.03173821590316,-6.322353754782628,-26.560848968555767,38.662105183577665
0.831,45.51204789766584,-13.140846877621879,-33.08966673648991,16.777863461376114,1.7146645178831124,-32.62683254082717,29.705838220130733
0.832,43.81944275139172,-1.1660162065447905,-42.58052451285488,9.206569496058181,-6.63830569096285,-38.92603921484771,39.67551699463851
0.833,57.996095534776046,6.280804602947288,-40.72631605198044,5.267809331168298,7.119873881703522,-38.904760978808675,43.8024978092759
0.834,38.24374713772813,2.247713385285543,-44.4704999510364,-0.685855316420172,-2.0766559054658007,-42.76711395603182,40.06618920373955
0.835,45.405351634780885,4.988216066138764,-48.24057894307023,-0.6791977369980868,1.919413630668391,-52.53146366199795,37.42297336246644
0.836,40.18020909111584,7.621624817860278,-49.09612222079068,-5.0761496489333915,0.15257671555827113,-58.372689693782796,35.214743605948705
0.837,40.23158417684173,15.846460150945688,-44.46937408685938,-11.81806717125083,1.5492949385309602,-45.51957821766122,41.30653244514796
0.838,28.093377074550702,9.410261154273817,-45.58828205146019,-21.759067364145885,13.63679123223272,-60.03274241540334,52.24871458118744
0.839,34.594396292433395,22.36347889142874,-54.72092131104938,-26.449969049576552,9.93237186180049,-48.36176638610412,51.786260132509945
0.84,18.640345888629767,27.66043998458183,-49.24954840481333,-32.92173771447405,14.499970193814256,-52.16687634563491,45.249051431234165
0.841,20.272633197123543,25.19547515378605,-58.130869781761675,-31.05049362282991,12.902285641418315,-55.864075070770845,56.951291573920216
0.842,27.97882131527667,23.57630809677144,-48.47207518976634,-45.92610872024924,13.244801251039878,-34.01547419824297,46.260240790416645
0.843,23.596077618907508,35.337994299269695,-49.123601760816996,-40.326022011706186,5.2266952371387845,-45.90564108606738,47.841321035923905
0.844,20.52400595253784,33.31196848555284,-54.28968211135468,-44.66751721185795,18.79597913932574,-27.568982120678825,55.949111666336066
0.845,15.570178336331612,45.54534081019897,-45.01325972125565,-47.446014140764845,23.533988384830376,-33.50095561828316,45.145131326779364
0.846,9.750796067730445,38.18746726999092,-52.108581158313804,-48.13746598071331,21.30904830104225,-22.249611925393147,48.80749604459891
0.847,18.674082978451892,43.79914212186754,-55.33060539182692,-45.82432742320714,15.445069968801583,-16.848727524357432,55.36959989114502
0.848,4.575759819489296,42.020964959656226,-53.94198735042627,-50.1787574142438,29.80169998963699,-14.415559192455758,46.36797695936967
0.849,1.7578974100912117,50.17425135530629,-57.0027713968159,-49.150882549958006,26.499734453020867,-7.311235445007384,43.96760148202894
0.85,-3.616170783332449,41.97782983399236,-54.52216462678558,-47.424013592674974,19.52507204859573,-2.770973772802491,55.19094846891207
0.851,2.411950337634015,46.69683393591461,-42.5278034960435,-48.69112822288125,28.04835097831715,12.749421171657975,49.86496353323357
0.852,-4.067355639766749,57.18258138872709,-41.430729616491824,-44.734731505289105,27.15544149346488,5.19788228136428,55.02240369253684
0.853,-3.253882156007675,46.565002440551375,-43.939708826834156,-47.436253406717285,34.87463089816002,24.48505209235384,54.165412713814085
0.854,-12.33414761455932,52.18884792113028,-38.147966442377445,-43.482292364297315,32.17502415065807,19.872339475780926,59.59797031838046
0.855,-19.28028310741875,47.26551787992606,-39.851364795677924,-48.40275323877236,44.554313554468024,30.969332070827367,43.96302336709825
0.856,-26.041293156522844,57.49783898625178,-39.03240771554437,-39.808952437022484,45.731595073229485,33.606752618593994,51.247800839740805
0.857,-26.223548530927133,49.68223463585551,-40.079842411444886,-39.25307282387277,44.5840231247203,54.379721598123155,36.466469798459414
0.858,-23.526074788632812,51.028582909819285,-36.71576755774585,-42.98904658759636,39.453454873361096,43.245159452160564,45.70518677184208
0.859,-33.11494683896589,48.3454471711392,-32.63243165314625,-29.844991241641083,44.113732285679816,44.531556921752234,52.56073412458225
0.86,-21.9084540944309,44.72287331115579,-34.29949921942812,-21.834808308349754,39.04212359552159,45.54421915112049,48.70769714301532
0.861,-37.86497755679323,42.188857105437606,-31.350922006963522,-26.567205563821602,46.70580988627675,41.854845345947055,47.73476569336862
0.862,-37.32024042219175,40.39318038879219,-32.20148941735968,-13.558347688450453,41.72426060097513,42.243662415598706,51.58337932365518
0.863,-24.930421704289742,38.62012521379062,-25.262473668502803,-19.231294918622492,41.85656023425883,53.44370929388325,49.61028415539117
0.864,-40.176923017196486,43.37590017376668,-25.493338899279934,-9.86522864835629,43.442745455111655,48.85887351763233,47.8700892354081
0.865,-35.82784671024177,31.286728858783423,-23.28460667987313,-17.110116414509584,57.08237809989709,40.292205012712,48.067122387480076
0.866,-38.31450334225569,28.262054950555992,-18.95399895868671,1.1447897046006275,53.16136937078014,34.35607753562368,37.92162937590787
0.867,-46.130007418152395,32.35306067885632,-15.477393059201146,-2.470988873573782,48.989691869629404,40.73382754396003,42.60680992064671
0.868,-43.43162105720324,28.38577125215562,-16.61906511925316,7.871521685742124,45.04547303125024,40.55302551271655,41.40928584037195
0.869,-47.63034938148587,23.346256640305796,-17.98310087175401,5.514071991755429,45.7776772904699,24.16313767739473,42.86647388682313
